# GOES17_ABI RSR
# QV 2025-06-04 from ABI-16-045_FM2_Spectral_Response_Curves.xlsx
# filtered to response > 0.002
# VSWIR bands
# GOES17_ABI Band CH047
# -------------------
0.442929 0.002018
0.442948 0.00206
0.442968 0.002104
0.442988 0.002149
0.443007 0.002195
0.443027 0.002242
0.443046 0.00229
0.443066 0.00234
0.443086 0.00239
0.443105 0.002442
0.443125 0.002495
0.443145 0.002548
0.443164 0.002603
0.443184 0.00266
0.443203 0.002717
0.443223 0.002775
0.443243 0.002834
0.443262 0.002895
0.443282 0.002956
0.443302 0.003019
0.443321 0.003082
0.443341 0.003147
0.443361 0.003212
0.44338 0.003278
0.4434 0.003346
0.44342 0.003414
0.443439 0.003484
0.443459 0.003554
0.443479 0.003625
0.443498 0.003697
0.443518 0.00377
0.443538 0.003844
0.443557 0.003919
0.443577 0.003995
0.443597 0.004071
0.443616 0.004149
0.443636 0.004227
0.443656 0.004306
0.443675 0.004386
0.443695 0.004466
0.443715 0.004548
0.443734 0.004632
0.443754 0.004719
0.443774 0.004807
0.443794 0.004898
0.443813 0.004992
0.443833 0.005088
0.443853 0.005187
0.443872 0.005289
0.443892 0.005393
0.443912 0.005501
0.443931 0.005611
0.443951 0.005725
0.443971 0.005841
0.443991 0.005962
0.44401 0.006085
0.44403 0.006211
0.44405 0.006339
0.444069 0.00647
0.444089 0.006603
0.444109 0.006739
0.444129 0.006877
0.444148 0.007018
0.444168 0.007161
0.444188 0.007307
0.444208 0.007455
0.444227 0.007606
0.444247 0.00776
0.444267 0.007917
0.444286 0.008076
0.444306 0.008237
0.444326 0.008402
0.444346 0.008569
0.444365 0.008739
0.444385 0.008912
0.444405 0.009088
0.444425 0.009267
0.444444 0.009448
0.444464 0.009632
0.444484 0.00982
0.444504 0.01001
0.444523 0.010203
0.444543 0.010399
0.444563 0.010598
0.444583 0.0108
0.444603 0.011006
0.444622 0.011214
0.444642 0.011425
0.444662 0.01164
0.444682 0.011857
0.444701 0.012078
0.444721 0.012302
0.444741 0.01253
0.444761 0.01276
0.444781 0.012994
0.4448 0.013231
0.44482 0.013476
0.44484 0.013736
0.44486 0.014009
0.444879 0.014297
0.444899 0.014598
0.444919 0.014912
0.444939 0.015241
0.444959 0.015583
0.444978 0.015939
0.444998 0.016309
0.445018 0.016692
0.445038 0.017088
0.445058 0.017497
0.445077 0.017917
0.445097 0.01835
0.445117 0.018794
0.445137 0.01925
0.445157 0.019716
0.445177 0.020194
0.445196 0.020682
0.445216 0.021181
0.445236 0.021689
0.445256 0.022207
0.445276 0.022735
0.445295 0.023272
0.445315 0.023818
0.445335 0.024372
0.445355 0.024935
0.445375 0.025506
0.445395 0.026085
0.445414 0.026671
0.445434 0.027265
0.445454 0.027866
0.445474 0.028473
0.445494 0.029087
0.445514 0.029707
0.445534 0.030333
0.445553 0.030965
0.445573 0.031602
0.445593 0.032244
0.445613 0.032891
0.445633 0.033543
0.445653 0.034199
0.445673 0.034858
0.445692 0.035522
0.445712 0.036189
0.445732 0.036859
0.445752 0.037532
0.445772 0.038207
0.445792 0.038885
0.445812 0.039565
0.445831 0.040247
0.445851 0.04093
0.445871 0.041615
0.445891 0.0423
0.445911 0.04299
0.445931 0.043704
0.445951 0.04445
0.445971 0.045233
0.445991 0.046057
0.44601 0.046924
0.44603 0.047807
0.44605 0.048702
0.44607 0.049611
0.44609 0.050531
0.44611 0.051464
0.44613 0.052409
0.44615 0.053366
0.44617 0.054334
0.44619 0.055315
0.446209 0.056307
0.446229 0.05731
0.446249 0.058325
0.446269 0.059351
0.446289 0.060388
0.446309 0.061436
0.446329 0.062495
0.446349 0.063565
0.446369 0.064645
0.446389 0.065736
0.446409 0.066837
0.446429 0.067949
0.446449 0.06907
0.446468 0.070201
0.446488 0.071343
0.446508 0.072494
0.446528 0.073654
0.446548 0.074824
0.446568 0.076004
0.446588 0.077192
0.446608 0.07839
0.446628 0.079597
0.446648 0.080812
0.446668 0.082037
0.446688 0.083269
0.446708 0.084511
0.446728 0.08576
0.446748 0.087018
0.446768 0.088284
0.446788 0.089558
0.446808 0.09084
0.446828 0.092129
0.446847 0.093426
0.446867 0.09473
0.446887 0.096042
0.446907 0.097361
0.446927 0.098687
0.446947 0.10002
0.446967 0.10136
0.446987 0.102706
0.447007 0.10406
0.447027 0.105427
0.447047 0.10681
0.447067 0.108208
0.447087 0.109623
0.447107 0.111053
0.447127 0.1125
0.447147 0.113963
0.447167 0.115443
0.447187 0.11694
0.447207 0.118453
0.447227 0.119984
0.447247 0.121532
0.447267 0.123098
0.447287 0.124681
0.447307 0.126282
0.447327 0.127901
0.447347 0.129538
0.447367 0.131194
0.447387 0.132868
0.447407 0.134561
0.447427 0.136273
0.447447 0.138004
0.447467 0.139755
0.447487 0.141524
0.447507 0.143314
0.447527 0.145123
0.447547 0.146952
0.447567 0.148802
0.447588 0.150671
0.447608 0.152563
0.447628 0.154493
0.447648 0.156463
0.447668 0.158473
0.447688 0.160522
0.447708 0.162608
0.447728 0.164729
0.447748 0.166885
0.447768 0.169075
0.447788 0.171297
0.447808 0.173549
0.447828 0.175832
0.447848 0.178142
0.447868 0.18048
0.447888 0.182844
0.447908 0.185232
0.447928 0.187644
0.447948 0.190078
0.447968 0.192532
0.447989 0.195006
0.448009 0.197502
0.448029 0.200039
0.448049 0.202623
0.448069 0.20525
0.448089 0.207919
0.448109 0.210628
0.448129 0.213375
0.448149 0.21616
0.448169 0.218979
0.448189 0.221831
0.448209 0.224714
0.448229 0.227627
0.44825 0.230568
0.44827 0.233534
0.44829 0.236525
0.44831 0.239538
0.44833 0.242572
0.44835 0.245624
0.44837 0.248693
0.44839 0.251777
0.44841 0.254875
0.44843 0.257984
0.448451 0.261103
0.448471 0.26423
0.448491 0.267363
0.448511 0.270501
0.448531 0.27364
0.448551 0.276781
0.448571 0.279921
0.448591 0.283057
0.448612 0.286189
0.448632 0.289315
0.448652 0.292432
0.448672 0.295539
0.448692 0.298635
0.448712 0.301716
0.448732 0.304782
0.448752 0.30783
0.448773 0.31086
0.448793 0.313868
0.448813 0.316854
0.448833 0.319815
0.448853 0.322749
0.448873 0.325655
0.448893 0.328531
0.448914 0.331376
0.448934 0.334186
0.448954 0.336961
0.448974 0.339699
0.448994 0.342397
0.449014 0.345057
0.449035 0.347686
0.449055 0.350286
0.449075 0.35286
0.449095 0.355408
0.449115 0.357933
0.449135 0.360437
0.449156 0.362921
0.449176 0.365387
0.449196 0.367838
0.449216 0.370274
0.449236 0.372698
0.449256 0.375112
0.449277 0.377516
0.449297 0.379915
0.449317 0.382311
0.449337 0.38471
0.449357 0.387111
0.449378 0.389513
0.449398 0.391916
0.449418 0.394319
0.449438 0.396719
0.449458 0.399118
0.449479 0.401512
0.449499 0.403903
0.449519 0.406288
0.449539 0.408667
0.449559 0.411039
0.44958 0.413402
0.4496 0.415757
0.44962 0.418101
0.44964 0.420435
0.449661 0.422756
0.449681 0.425065
0.449701 0.42736
0.449721 0.42964
0.449741 0.431904
0.449762 0.434152
0.449782 0.436382
0.449802 0.438594
0.449822 0.440786
0.449843 0.442957
0.449863 0.445107
0.449883 0.447235
0.449903 0.44934
0.449924 0.45142
0.449944 0.453475
0.449964 0.455504
0.449984 0.457505
0.450005 0.45948
0.450025 0.461451
0.450045 0.46343
0.450065 0.465414
0.450086 0.467404
0.450106 0.469397
0.450126 0.471393
0.450146 0.47339
0.450167 0.475387
0.450187 0.477383
0.450207 0.479377
0.450227 0.481368
0.450248 0.483355
0.450268 0.485335
0.450288 0.487309
0.450308 0.489276
0.450329 0.491233
0.450349 0.49318
0.450369 0.495115
0.45039 0.497038
0.45041 0.498947
0.45043 0.500842
0.45045 0.50272
0.450471 0.504581
0.450491 0.506423
0.450511 0.508246
0.450532 0.510049
0.450552 0.511829
0.450572 0.513586
0.450593 0.515319
0.450613 0.517027
0.450633 0.518708
0.450653 0.520361
0.450674 0.521986
0.450694 0.52358
0.450714 0.525143
0.450735 0.526673
0.450755 0.52817
0.450775 0.529632
0.450796 0.531058
0.450816 0.532447
0.450836 0.533798
0.450857 0.535109
0.45087700000000003 0.536379
0.450897 0.537608
0.450918 0.538793
0.450938 0.539934
0.450958 0.54103
0.450979 0.542079
0.450999 0.54308
0.451019 0.544008
0.45104 0.544845
0.45106 0.545609
0.45108 0.546321
0.451101 0.546998
0.451121 0.54766
0.451141 0.54831
0.451162 0.54895
0.451182 0.549578
0.451202 0.550197
0.451223 0.550806
0.451243 0.551406
0.451264 0.551997
0.451284 0.552579
0.451304 0.553153
0.451325 0.553719
0.451345 0.554277
0.451365 0.554829
0.451386 0.555373
0.451406 0.555912
0.451427 0.556444
0.451447 0.556971
0.451467 0.557493
0.451488 0.558009
0.451508 0.558522
0.451528 0.55903
0.451549 0.559535
0.451569 0.560036
0.45159 0.560534
0.45161 0.56103
0.45163 0.561524
0.451651 0.562016
0.451671 0.562507
0.451692 0.562996
0.451712 0.563485
0.451732 0.563974
0.451753 0.564463
0.451773 0.564952
0.451794 0.565442
0.451814 0.565934
0.451834 0.566427
0.451855 0.566922
0.451875 0.56742
0.451896 0.56792
0.451916 0.568424
0.451937 0.568931
0.451957 0.569443
0.451977 0.569958
0.451998 0.570479
0.452018 0.571
0.452039 0.571518
0.452059 0.572031
0.45208 0.572541
0.4521 0.573048
0.45212 0.573551
0.452141 0.574051
0.452161 0.574549
0.452182 0.575045
0.452202 0.575538
0.452223 0.57603
0.452243 0.57652
0.452264 0.577009
0.452284 0.577497
0.452304 0.577984
0.452325 0.578471
0.452345 0.578958
0.452366 0.579445
0.452386 0.579932
0.452407 0.580421
0.452427 0.58091
0.452448 0.5814
0.452468 0.581892
0.452489 0.582386
0.452509 0.582882
0.45253 0.58338
0.45255 0.583881
0.452571 0.584385
0.452591 0.584892
0.452612 0.585403
0.452632 0.585917
0.452653 0.586435
0.452673 0.586958
0.452694 0.587485
0.452714 0.588018
0.452735 0.588555
0.452755 0.589098
0.452776 0.589647
0.452796 0.590201
0.452817 0.590762
0.452837 0.591329
0.452858 0.591904
0.452878 0.592485
0.452899 0.593074
0.452919 0.593677
0.45294 0.594303
0.45296 0.594953
0.452981 0.595628
0.453001 0.596327
0.453022 0.59704
0.453042 0.597758
0.453063 0.59848
0.453083 0.599207
0.453104 0.599938
0.453124 0.600675
0.453145 0.601416
0.453165 0.602163
0.453186 0.602914
0.453206 0.603671
0.453227 0.604432
0.453248 0.605199
0.453268 0.605972
0.453289 0.60675
0.453309 0.607533
0.45333 0.608322
0.45335 0.609117
0.453371 0.609917
0.453391 0.610723
0.453412 0.611535
0.453432 0.612353
0.453453 0.613176
0.453474 0.614006
0.453494 0.614843
0.453515 0.615685
0.453535 0.616534
0.453556 0.617389
0.453576 0.61825
0.453597 0.619118
0.453618 0.619993
0.453638 0.620874
0.453659 0.621762
0.453679 0.622657
0.4537 0.623558
0.453721 0.624467
0.453741 0.625383
0.453762 0.626305
0.453782 0.627235
0.453803 0.628173
0.453823 0.629117
0.453844 0.630069
0.453865 0.631029
0.453885 0.631996
0.453906 0.63297
0.453926 0.633953
0.453947 0.634943
0.453968 0.635941
0.453988 0.636947
0.454009 0.637962
0.45403 0.639
0.45405 0.640087
0.454071 0.641245
0.454091 0.642497
0.454112 0.643859
0.454133 0.645295
0.454153 0.6468
0.454174 0.648371
0.454194 0.650003
0.454215 0.651695
0.454236 0.653444
0.454256 0.655247
0.454277 0.657101
0.454298 0.659003
0.454318 0.66095
0.454339 0.66294
0.45436 0.66497
0.45438 0.667036
0.454401 0.669136
0.454422 0.671267
0.454442 0.673426
0.454463 0.675611
0.454483 0.677818
0.454504 0.680044
0.454525 0.682288
0.454545 0.684545
0.454566 0.686813
0.454587 0.689089
0.454607 0.69137
0.454628 0.693653
0.454649 0.695936
0.454669 0.698216
0.45469 0.700489
0.454711 0.702753
0.454731 0.705004
0.454752 0.707241
0.454773 0.70946
0.454794 0.711658
0.454814 0.713833
0.454835 0.71598
0.454856 0.718099
0.454876 0.720185
0.454897 0.722235
0.454918 0.724248
0.454938 0.726219
0.454959 0.728147
0.45498 0.730027
0.455 0.731858
0.455021 0.733679
0.455042 0.735525
0.455063 0.737395
0.455083 0.739287
0.455104 0.741196
0.455125 0.743122
0.455145 0.745061
0.455166 0.74701
0.455187 0.748968
0.455208 0.750931
0.455228 0.752897
0.455249 0.754864
0.45527 0.756829
0.45529 0.758789
0.455311 0.760741
0.455332 0.762684
0.455353 0.764615
0.455373 0.76653
0.455394 0.768428
0.455415 0.770306
0.455436 0.772161
0.455456 0.77399
0.455477 0.775792
0.455498 0.777563
0.455519 0.779301
0.455539 0.781004
0.45556 0.782668
0.455581 0.784291
0.455602 0.785871
0.455622 0.787405
0.455643 0.788891
0.455664 0.790325
0.455685 0.791705
0.455705 0.793028
0.455726 0.794293
0.455747 0.795496
0.455768 0.796635
0.455789 0.797707
0.455809 0.798709
0.45583 0.79964
0.455851 0.800495
0.455872 0.801274
0.455892 0.801972
0.455913 0.80258
0.455934 0.803084
0.455955 0.803521
0.455976 0.803932
0.455996 0.804355
0.456017 0.80481
0.456038 0.805277
0.456059 0.805752
0.45608 0.806237
0.4561 0.806728
0.456121 0.807226
0.456142 0.80773
0.456163 0.808239
0.456184 0.808751
0.456204 0.809266
0.456225 0.809783
0.456246 0.810302
0.456267 0.81082
0.456288 0.811337
0.456308 0.811853
0.456329 0.812366
0.45635 0.812876
0.456371 0.813381
0.456392 0.813881
0.456413 0.814374
0.456433 0.81486
0.456454 0.815337
0.456475 0.815806
0.456496 0.816265
0.456517 0.816712
0.456538 0.817148
0.456558 0.817571
0.456579 0.81798
0.4566 0.818374
0.456621 0.818753
0.456642 0.819115
0.456663 0.819459
0.456684 0.819785
0.456704 0.820092
0.456725 0.820379
0.456746 0.820644
0.456767 0.820887
0.456788 0.821107
0.456809 0.821306
0.45683 0.821504
0.45685 0.821702
0.456871 0.821893
0.456892 0.822072
0.456913 0.822233
0.456934 0.82237
0.456955 0.822477
0.456976 0.822549
0.456997 0.822579
0.457018 0.822565
0.457038 0.822511
0.457059 0.822418
0.45708 0.822287
0.457101 0.822122
0.457122 0.821924
0.457143 0.821694
0.457164 0.821435
0.457185 0.821148
0.457206 0.820836
0.457226 0.8205
0.457247 0.820141
0.457268 0.819762
0.457289 0.819365
0.45731 0.818952
0.457331 0.818523
0.457352 0.818082
0.457373 0.81763
0.457394 0.817169
0.457415 0.8167
0.457436 0.816227
0.457457 0.815749
0.457477 0.81527
0.457498 0.814792
0.457519 0.814315
0.45754 0.813842
0.457561 0.813375
0.457582 0.812916
0.457603 0.812466
0.457624 0.812028
0.457645 0.811603
0.457666 0.811193
0.457687 0.8108
0.457708 0.810423
0.457729 0.810037
0.45775 0.809638
0.457771 0.809229
0.457792 0.808814
0.457813 0.808396
0.457834 0.807979
0.457854 0.807566
0.457875 0.807161
0.457896 0.806766
0.457917 0.806387
0.457938 0.806026
0.457959 0.805686
0.45798 0.805372
0.458001 0.805086
0.458022 0.804812
0.458043 0.804535
0.458064 0.804255
0.458085 0.803975
0.458106 0.803695
0.458127 0.803415
0.458148 0.803137
0.458169 0.802862
0.45819 0.80259
0.458211 0.802323
0.458232 0.802061
0.458253 0.801806
0.458274 0.801559
0.458295 0.801319
0.458316 0.801089
0.458337 0.800869
0.458358 0.800661
0.458379 0.800464
0.4584 0.800281
0.458421 0.800112
0.458442 0.799957
0.458463 0.799819
0.458484 0.799698
0.458505 0.799594
0.458526 0.799509
0.458547 0.799444
0.458568 0.7994
0.458589 0.799377
0.45861 0.799382
0.458631 0.799447
0.458652 0.799572
0.458674 0.799752
0.458695 0.799982
0.458716 0.800257
0.458737 0.800571
0.458758 0.800919
0.458779 0.801297
0.4588 0.801698
0.458821 0.802118
0.458842 0.802552
0.458863 0.802994
0.458884 0.803439
0.458905 0.803882
0.458926 0.804318
0.458947 0.804741
0.458968 0.805146
0.458989 0.805529
0.45901 0.805886
0.459031 0.806235
0.459053 0.806579
0.459074 0.806919
0.459095 0.807257
0.459116 0.807594
0.459137 0.80793
0.459158 0.808267
0.459179 0.808605
0.4592 0.808946
0.459221 0.809291
0.459242 0.809641
0.459263 0.809997
0.459284 0.81036
0.459306 0.810731
0.459327 0.81111
0.459348 0.811501
0.459369 0.811902
0.45939 0.812315
0.459411 0.812742
0.459432 0.813184
0.459453 0.813641
0.459474 0.814114
0.459495 0.814605
0.459517 0.81512
0.459538 0.815668
0.459559 0.81625
0.45958 0.816862
0.459601 0.817503
0.459622 0.818171
0.459643 0.818864
0.459664 0.819579
0.459686 0.820316
0.459707 0.821072
0.459728 0.821844
0.459749 0.822632
0.45977 0.823432
0.459791 0.824244
0.459812 0.825065
0.459834 0.825893
0.459855 0.826727
0.459876 0.827564
0.459897 0.828402
0.459918 0.829239
0.459939 0.830074
0.45996 0.830904
0.459982 0.831727
0.460003 0.832543
0.460024 0.833371
0.460045 0.834223
0.460066 0.835096
0.460087 0.835987
0.460109 0.836891
0.46013 0.837807
0.460151 0.838731
0.460172 0.839658
0.460193 0.840588
0.460214 0.841514
0.460236 0.842436
0.460257 0.843349
0.460278 0.844249
0.460299 0.845135
0.46032 0.846002
0.460342 0.846847
0.460363 0.847667
0.460384 0.848459
0.460405 0.849219
0.460426 0.84996
0.460448 0.850689
0.460469 0.851406
0.46049 0.852111
0.460511 0.852805
0.460532 0.85349
0.460554 0.854164
0.460575 0.85483
0.460596 0.855488
0.460617 0.856137
0.460638 0.85678
0.46066 0.857417
0.460681 0.858047
0.460702 0.858673
0.460723 0.859294
0.460745 0.859911
0.460766 0.860525
0.460787 0.861136
0.460808 0.861745
0.460829 0.862353
0.460851 0.86296
0.460872 0.863567
0.460893 0.864175
0.460914 0.864784
0.460936 0.865394
0.460957 0.866007
0.460978 0.866624
0.460999 0.867244
0.461021 0.867864
0.461042 0.868482
0.461063 0.869096
0.461084 0.869707
0.461106 0.870315
0.461127 0.870919
0.461148 0.87152
0.46117 0.872117
0.461191 0.872711
0.461212 0.873302
0.461233 0.873891
0.461255 0.874478
0.461276 0.875063
0.461297 0.875648
0.461318 0.87623
0.46134 0.876811
0.461361 0.877391
0.461382 0.87797
0.461404 0.878547
0.461425 0.879122
0.461446 0.879697
0.461467 0.88027
0.461489 0.880842
0.46151 0.881414
0.461531 0.881983
0.461553 0.882552
0.461574 0.88312
0.461595 0.883687
0.461617 0.884253
0.461638 0.884818
0.461659 0.885382
0.461681 0.885946
0.461702 0.886508
0.461723 0.88707
0.461744 0.887631
0.461766 0.888192
0.461787 0.888752
0.461808 0.889311
0.46183 0.88987
0.461851 0.890428
0.461872 0.890986
0.461894 0.891543
0.461915 0.8921
0.461936 0.892657
0.461958 0.893213
0.461979 0.893769
0.462 0.894325
0.462022 0.894875
0.462043 0.895419
0.462065 0.895963
0.462086 0.896511
0.462107 0.897071
0.462129 0.897646
0.46215 0.898239
0.462171 0.898846
0.462193 0.899468
0.462214 0.900102
0.462235 0.900748
0.462257 0.901404
0.462278 0.90207
0.462299 0.902743
0.462321 0.903423
0.462342 0.90411
0.462364 0.9048
0.462385 0.905494
0.462406 0.90619
0.462428 0.906886
0.462449 0.907583
0.462471 0.908277
0.462492 0.908969
0.462513 0.909657
0.462535 0.91034
0.462556 0.911017
0.462577 0.911686
0.462599 0.912346
0.46262 0.912997
0.462642 0.913636
0.462663 0.914263
0.462684 0.914876
0.462706 0.915474
0.462727 0.916057
0.462749 0.916622
0.46277 0.917169
0.462792 0.917696
0.462813 0.918203
0.462834 0.918687
0.462856 0.919148
0.462877 0.919585
0.462899 0.919996
0.46292 0.92038
0.462942 0.920736
0.462963 0.921063
0.462984 0.921359
0.463006 0.921624
0.463027 0.921879
0.463049 0.922129
0.46307 0.922376
0.463092 0.922619
0.463113 0.922858
0.463134 0.923093
0.463156 0.923324
0.463177 0.923551
0.463199 0.923774
0.46322 0.923993
0.463242 0.924208
0.463263 0.924418
0.463285 0.924624
0.463306 0.924826
0.463328 0.925023
0.463349 0.925216
0.463371 0.925404
0.463392 0.925588
0.463414 0.925767
0.463435 0.925941
0.463456 0.926111
0.463478 0.926276
0.463499 0.926436
0.463521 0.926591
0.463542 0.926741
0.463564 0.926886
0.463585 0.927026
0.463607 0.927161
0.463628 0.927291
0.46365 0.927416
0.463671 0.927535
0.463693 0.927649
0.463714 0.927757
0.463736 0.92786
0.463757 0.927958
0.463779 0.92805
0.4638 0.928136
0.463822 0.928217
0.463843 0.928292
0.463865 0.928361
0.463886 0.928425
0.463908 0.928483
0.463929 0.92854
0.463951 0.928592
0.463973 0.928632
0.463994 0.928651
0.464016 0.928645
0.464037 0.928611
0.464059 0.92855
0.46408 0.928464
0.464102 0.928355
0.464123 0.928225
0.464145 0.928074
0.464166 0.927904
0.464188 0.927718
0.464209 0.927516
0.464231 0.9273
0.464253 0.927072
0.464274 0.926833
0.464296 0.926585
0.464317 0.92633
0.464339 0.926068
0.46436 0.925802
0.464382 0.925532
0.464403 0.925262
0.464425 0.924992
0.464447 0.924723
0.464468 0.924458
0.46449 0.924198
0.464511 0.923944
0.464533 0.923699
0.464554 0.923463
0.464576 0.923238
0.464598 0.923026
0.464619 0.922829
0.464641 0.922648
0.464662 0.922484
0.464684 0.92234
0.464706 0.922216
0.464727 0.922115
0.464749 0.922037
0.46477 0.921985
0.464792 0.92196
0.464814 0.921965
0.464835 0.921997
0.464857 0.922055
0.464878 0.922132
0.4649 0.922225
0.464922 0.922329
0.464943 0.92244
0.464965 0.922552
0.464987 0.922661
0.465008 0.922765
0.46503 0.922867
0.465051 0.92297
0.465073 0.923075
0.465095 0.923181
0.465116 0.923289
0.465138 0.923399
0.46516 0.923511
0.465181 0.923626
0.465203 0.923743
0.465224 0.923862
0.465246 0.923985
0.465268 0.92411
0.465289 0.924239
0.465311 0.924372
0.465333 0.924508
0.465354 0.924648
0.465376 0.924793
0.465398 0.924941
0.465419 0.925095
0.465441 0.925253
0.465463 0.925415
0.465484 0.925584
0.465506 0.925757
0.465528 0.925936
0.465549 0.926121
0.465571 0.926311
0.465593 0.926508
0.465614 0.926711
0.465636 0.926921
0.465658 0.927138
0.465679 0.927361
0.465701 0.927592
0.465723 0.927848
0.465744 0.928142
0.465766 0.92847
0.465788 0.928828
0.46581 0.929214
0.465831 0.929623
0.465853 0.930052
0.465875 0.930497
0.465896 0.930956
0.465918 0.931424
0.46594 0.931898
0.465962 0.932374
0.465983 0.93285
0.466005 0.933321
0.466027 0.933806
0.466048 0.934312
0.46607 0.934836
0.466092 0.935377
0.466114 0.935933
0.466135 0.936503
0.466157 0.937084
0.466179 0.937675
0.4662 0.938273
0.466222 0.938878
0.466244 0.939487
0.466266 0.940098
0.466287 0.94071
0.466309 0.94132
0.466331 0.941928
0.466353 0.94253
0.466374 0.943126
0.466396 0.943713
0.466418 0.94429
0.46644 0.944854
0.466461 0.945405
0.466483 0.94594
0.466505 0.946457
0.466527 0.946967
0.466548 0.947475
0.46657 0.947981
0.466592 0.948484
0.466614 0.948983
0.466636 0.949479
0.466657 0.949972
0.466679 0.95046
0.466701 0.950944
0.466723 0.951423
0.466744 0.951897
0.466766 0.952367
0.466788 0.95283
0.46681 0.953288
0.466832 0.95374
0.466853 0.954185
0.466875 0.954624
0.466897 0.955056
0.466919 0.95548
0.466941 0.955897
0.466962 0.956306
0.466984 0.956707
0.467006 0.9571
0.467028 0.957488
0.46705 0.957874
0.467071 0.958257
0.467093 0.958636
0.467115 0.95901
0.467137 0.959379
0.467159 0.959743
0.467181 0.960101
0.467202 0.960452
0.467224 0.960795
0.467246 0.961131
0.467268 0.961459
0.46729 0.961777
0.467312 0.962086
0.467333 0.962385
0.467355 0.962673
0.467377 0.962951
0.467399 0.963216
0.467421 0.963471
0.467443 0.963718
0.467464 0.963959
0.467486 0.964192
0.467508 0.96442
0.46753 0.964641
0.467552 0.964857
0.467574 0.965069
0.467596 0.965275
0.467617 0.965478
0.467639 0.965676
0.467661 0.965872
0.467683 0.966064
0.467705 0.966254
0.467727 0.966443
0.467749 0.966629
0.467771 0.966815
0.467792 0.966999
0.467814 0.967184
0.467836 0.967368
0.467858 0.967554
0.46788 0.96774
0.467902 0.967928
0.467924 0.968117
0.467946 0.968309
0.467968 0.968504
0.46799 0.968702
0.468011 0.968903
0.468033 0.969106
0.468055 0.96931
0.468077 0.969515
0.468099 0.96972
0.468121 0.969925
0.468143 0.970129
0.468165 0.970333
0.468187 0.970534
0.468209 0.970734
0.468231 0.970931
0.468252 0.971126
0.468274 0.971317
0.468296 0.971504
0.468318 0.971688
0.46834 0.971869
0.468362 0.972049
0.468384 0.972227
0.468406 0.972403
0.468428 0.972578
0.46845 0.972751
0.468472 0.972923
0.468494 0.973093
0.468516 0.973262
0.468538 0.97343
0.46856 0.973597
0.468582 0.973763
0.468604 0.973928
0.468626 0.974093
0.468647 0.974256
0.468669 0.97442
0.468691 0.974582
0.468713 0.974745
0.468735 0.974907
0.468757 0.975069
0.468779 0.975231
0.468801 0.975393
0.468823 0.975555
0.468845 0.975717
0.468867 0.97588
0.468889 0.976043
0.468911 0.976207
0.468933 0.976371
0.468955 0.976536
0.468977 0.976702
0.468999 0.976868
0.469021 0.977035
0.469043 0.977202
0.469065 0.977368
0.469087 0.977535
0.469109 0.977701
0.469131 0.977868
0.469153 0.978035
0.469175 0.978203
0.469197 0.978371
0.469219 0.97854
0.469241 0.978708
0.469263 0.978876
0.469285 0.979043
0.469307 0.97921
0.469329 0.979377
0.469351 0.979543
0.469373 0.97971
0.469395 0.979876
0.469417 0.980042
0.469439 0.980208
0.469462 0.980375
0.469484 0.980541
0.469506 0.980708
0.469528 0.980875
0.46955 0.981042
0.469572 0.98121
0.469594 0.981378
0.469616 0.981547
0.469638 0.981717
0.46966 0.981887
0.469682 0.982058
0.469704 0.98223
0.469726 0.982402
0.469748 0.982576
0.46977 0.98275
0.469792 0.982926
0.469814 0.983102
0.469836 0.98328
0.469859 0.98346
0.469881 0.98364
0.469903 0.983822
0.469925 0.984005
0.469947 0.98419
0.469969 0.984377
0.469991 0.984565
0.470013 0.984755
0.470035 0.984948
0.470057 0.985146
0.470079 0.985352
0.470102 0.985569
0.470124 0.985796
0.470146 0.986034
0.470168 0.986281
0.47019 0.986538
0.470212 0.986803
0.470234 0.987076
0.470256 0.987356
0.470278 0.987642
0.470301 0.987935
0.470323 0.988232
0.470345 0.988534
0.470367 0.98884
0.470389 0.989149
0.470411 0.989461
0.470433 0.989775
0.470455 0.990089
0.470478 0.990405
0.4705 0.99072
0.470522 0.991035
0.470544 0.991348
0.470566 0.991659
0.470588 0.991968
0.47061 0.992273
0.470633 0.992574
0.470655 0.992871
0.470677 0.993162
0.470699 0.993447
0.470721 0.993726
0.470743 0.993997
0.470765 0.99426
0.470788 0.994515
0.47081 0.99476
0.470832 0.994996
0.470854 0.99522
0.470876 0.995434
0.470898 0.995635
0.470921 0.995824
0.470943 0.995999
0.470965 0.996161
0.470987 0.996308
0.471009 0.996441
0.471032 0.99657
0.471054 0.996697
0.471076 0.996822
0.471098 0.996946
0.47112 0.997068
0.471143 0.997187
0.471165 0.997305
0.471187 0.997421
0.471209 0.997535
0.471231 0.997647
0.471254 0.997756
0.471276 0.997864
0.471298 0.99797
0.47132 0.998073
0.471342 0.998174
0.471365 0.998273
0.471387 0.99837
0.471409 0.998464
0.471431 0.998556
0.471453 0.998645
0.471476 0.998733
0.471498 0.998817
0.47152 0.9989
0.471542 0.99898
0.471565 0.999057
0.471587 0.999131
0.471609 0.999204
0.471631 0.999273
0.471654 0.99934
0.471676 0.999404
0.471698 0.999465
0.47172 0.999524
0.471743 0.999579
0.471765 0.999632
0.471787 0.999682
0.471809 0.999729
0.471832 0.999773
0.471854 0.999814
0.471876 0.999852
0.471898 0.999887
0.471921 0.999921
0.471943 0.999954
0.471965 0.999981
0.471988 0.999997
0.47201 0.999998
0.472032 0.999976
0.472054 0.999933
0.472077 0.999869
0.472099 0.999784
0.472121 0.99968
0.472144 0.999557
0.472166 0.999416
0.472188 0.999257
0.47221 0.999083
0.472233 0.998892
0.472255 0.998687
0.472277 0.998468
0.4723 0.998235
0.472322 0.99799
0.472344 0.997734
0.472367 0.997466
0.472389 0.997188
0.472411 0.996901
0.472434 0.996606
0.472456 0.996303
0.472478 0.995993
0.4725 0.995676
0.472523 0.995355
0.472545 0.995029
0.472567 0.994699
0.47259 0.994366
0.472612 0.994031
0.472634 0.993695
0.472657 0.993358
0.472679 0.993021
0.472701 0.992685
0.472724 0.992351
0.472746 0.99202
0.472769 0.991693
0.472791 0.991369
0.472813 0.991051
0.472836 0.990738
0.472858 0.990432
0.47288 0.990133
0.472903 0.989843
0.472925 0.989545
0.472947 0.989234
0.47297 0.988915
0.472992 0.988593
0.473015 0.988267
0.473037 0.987923
0.473059 0.987561
0.473082 0.987183
0.473104 0.986791
0.473126 0.986385
0.473149 0.985968
0.473171 0.985542
0.473194 0.985108
0.473216 0.984667
0.473238 0.984221
0.473261 0.983773
0.473283 0.983323
0.473306 0.982873
0.473328 0.982426
0.47335 0.981982
0.473373 0.981543
0.473395 0.981112
0.473418 0.980689
0.47344 0.980276
0.473462 0.979875
0.473485 0.979488
0.473507 0.979116
0.47353 0.978761
0.473552 0.978424
0.473575 0.978108
0.473597 0.977814
0.473619 0.977544
0.473642 0.977299
0.473664 0.97708
0.473687 0.976891
0.473709 0.976732
0.473732 0.976605
0.473754 0.976511
0.473776 0.976453
0.473799 0.976432
0.473821 0.976442
0.473844 0.976471
0.473866 0.976515
0.473889 0.97657
0.473911 0.976634
0.473934 0.976701
0.473956 0.976769
0.473979 0.976833
0.474001 0.976891
0.474024 0.976943
0.474046 0.976992
0.474068 0.97704
0.474091 0.977085
0.474113 0.977129
0.474136 0.977172
0.474158 0.977214
0.474181 0.977256
0.474203 0.977297
0.474226 0.977337
0.474248 0.977378
0.474271 0.977419
0.474293 0.977461
0.474316 0.977504
0.474338 0.977548
0.474361 0.977593
0.474383 0.97764
0.474406 0.977689
0.474428 0.977741
0.474451 0.977795
0.474473 0.977851
0.474496 0.977911
0.474518 0.977974
0.474541 0.97804
0.474563 0.978111
0.474586 0.978185
0.474608 0.978264
0.474631 0.978348
0.474654 0.978437
0.474676 0.97853
0.474699 0.97863
0.474721 0.978753
0.474744 0.978921
0.474766 0.979128
0.474789 0.979369
0.474811 0.979639
0.474834 0.979932
0.474856 0.980243
0.474879 0.980567
0.474901 0.980898
0.474924 0.981232
0.474947 0.981562
0.474969 0.981884
0.474992 0.982192
0.475014 0.982491
0.475037 0.982812
0.475059 0.983156
0.475082 0.983519
0.475105 0.9839
0.475127 0.984294
0.47515 0.984699
0.475172 0.985113
0.475195 0.985532
0.475217 0.985954
0.47524 0.986375
0.475263 0.986793
0.475285 0.987204
0.475308 0.987607
0.47533 0.987997
0.475353 0.988373
0.475376 0.988731
0.475398 0.989068
0.475421 0.989382
0.475443 0.989669
0.475466 0.989927
0.475489 0.990153
0.475511 0.990344
0.475534 0.990496
0.475556 0.990608
0.475579 0.990675
0.475602 0.990696
0.475624 0.990685
0.475647 0.990656
0.47567 0.990611
0.475692 0.990549
0.475715 0.990474
0.475737 0.990385
0.47576 0.990284
0.475783 0.990172
0.475805 0.990051
0.475828 0.989921
0.475851 0.989784
0.475873 0.98964
0.475896 0.989492
0.475919 0.989341
0.475941 0.989187
0.475964 0.989031
0.475986 0.988876
0.476009 0.988721
0.476032 0.988558
0.476054 0.988384
0.476077 0.988201
0.4761 0.988006
0.476122 0.987802
0.476145 0.987587
0.476168 0.987361
0.47619 0.987124
0.476213 0.986877
0.476236 0.986618
0.476259 0.986349
0.476281 0.986068
0.476304 0.985777
0.476327 0.985474
0.476349 0.985159
0.476372 0.984834
0.476395 0.984496
0.476417 0.984147
0.47644 0.983787
0.476463 0.983414
0.476485 0.98303
0.476508 0.982634
0.476531 0.982225
0.476554 0.981805
0.476576 0.981372
0.476599 0.980927
0.476622 0.980445
0.476644 0.979899
0.476667 0.979294
0.47669 0.978634
0.476713 0.977923
0.476735 0.977166
0.476758 0.976367
0.476781 0.975531
0.476804 0.974662
0.476826 0.973764
0.476849 0.972841
0.476872 0.971899
0.476894 0.970942
0.476917 0.969973
0.47694 0.968997
0.476963 0.96802
0.476985 0.967044
0.477008 0.966072
0.477031 0.965069
0.477054 0.964027
0.477076 0.96295
0.477099 0.96184
0.477122 0.960701
0.477145 0.959535
0.477168 0.958346
0.47719 0.957136
0.477213 0.955909
0.477236 0.954667
0.477259 0.953415
0.477281 0.952153
0.477304 0.950887
0.477327 0.949618
0.47735 0.948349
0.477373 0.947085
0.477395 0.945827
0.477418 0.944579
0.477441 0.943344
0.477464 0.942124
0.477487 0.940924
0.477509 0.939742
0.477532 0.938552
0.477555 0.937349
0.477578 0.936137
0.477601 0.934917
0.477623 0.933691
0.477646 0.932462
0.477669 0.931233
0.477692 0.930005
0.477715 0.928782
0.477737 0.927565
0.47776 0.926357
0.477783 0.92516
0.477806 0.923976
0.477829 0.922809
0.477852 0.92166
0.477874 0.920532
0.477897 0.919428
0.47792 0.918349
0.477943 0.917297
0.477966 0.916277
0.477989 0.915288
0.478011 0.914331
0.478034 0.913376
0.478057 0.912423
0.47808 0.911474
0.478103 0.910533
0.478126 0.909604
0.478149 0.908689
0.478171 0.907791
0.478194 0.906915
0.478217 0.906062
0.47824 0.905237
0.478263 0.904443
0.478286 0.903682
0.478309 0.902959
0.478332 0.902276
0.478354 0.901637
0.478377 0.901044
0.4784 0.900502
0.478423 0.899986
0.478446 0.899472
0.478469 0.898961
0.478492 0.898455
0.478515 0.897954
0.478538 0.897461
0.47856 0.896976
0.478583 0.8965
0.478606 0.896036
0.478629 0.895583
0.478652 0.895143
0.478675 0.894718
0.478698 0.894309
0.478721 0.893917
0.478744 0.893542
0.478767 0.893188
0.47879 0.892854
0.478813 0.892542
0.478835 0.892253
0.478858 0.891989
0.478881 0.891751
0.478904 0.891539
0.478927 0.891356
0.47895 0.891202
0.478973 0.89108
0.478996 0.890989
0.479019 0.89092
0.479042 0.890854
0.479065 0.890792
0.479088 0.890732
0.479111 0.890676
0.479134 0.890625
0.479157 0.890579
0.47918 0.890538
0.479203 0.890503
0.479226 0.890474
0.479249 0.890452
0.479272 0.890438
0.479294 0.890432
0.479317 0.890451
0.47934 0.890537
0.479363 0.890686
0.479386 0.890897
0.479409 0.891166
0.479432 0.89149
0.479455 0.891865
0.479478 0.89229
0.479501 0.89276
0.479524 0.893273
0.479547 0.893825
0.47957 0.894413
0.479593 0.895035
0.479616 0.895686
0.479639 0.896365
0.479662 0.897068
0.479685 0.897791
0.479708 0.898532
0.479731 0.899287
0.479754 0.900053
0.479777 0.900828
0.4798 0.901608
0.479823 0.90239
0.479846 0.90317
0.479869 0.903946
0.479893 0.904715
0.479916 0.905473
0.479939 0.906218
0.479962 0.906945
0.479985 0.907652
0.480008 0.908339
0.480031 0.909038
0.480054 0.909758
0.480077 0.910496
0.4801 0.911252
0.480123 0.912024
0.480146 0.91281
0.480169 0.913607
0.480192 0.914415
0.480215 0.915231
0.480238 0.916054
0.480261 0.916881
0.480284 0.917712
0.480307 0.918546
0.48033 0.919395
0.480354 0.920264
0.480377 0.92115
0.4804 0.922053
0.480423 0.92297
0.480446 0.9239
0.480469 0.924842
0.480492 0.925793
0.480515 0.926752
0.480538 0.927718
0.480561 0.928689
0.480584 0.929662
0.480607 0.930638
0.480631 0.931613
0.480654 0.932587
0.480677 0.933557
0.4807 0.934522
0.480723 0.935481
0.480746 0.936432
0.480769 0.937372
0.480792 0.938302
0.480815 0.939218
0.480839 0.94012
0.480862 0.941005
0.480885 0.941872
0.480908 0.94272
0.480931 0.943546
0.480954 0.94435
0.480977 0.945129
0.481 0.945881
0.481024 0.946616
0.481047 0.947338
0.48107 0.948044
0.481093 0.948729
0.481116 0.949391
0.481139 0.950025
0.481162 0.950627
0.481186 0.951194
0.481209 0.951724
0.481232 0.952246
0.481255 0.952766
0.481278 0.953285
0.481301 0.953801
0.481325 0.954313
0.481348 0.954822
0.481371 0.955327
0.481394 0.955828
0.481417 0.956323
0.48144 0.956812
0.481464 0.957294
0.481487 0.95777
0.48151 0.958238
0.481533 0.958699
0.481556 0.95915
0.48158 0.959593
0.481603 0.960025
0.481626 0.960448
0.481649 0.960859
0.481672 0.96126
0.481696 0.961648
0.481719 0.962024
0.481742 0.962387
0.481765 0.962736
0.481788 0.963071
0.481812 0.963392
0.481835 0.963697
0.481858 0.963986
0.481881 0.964259
0.481904 0.964515
0.481928 0.964754
0.481951 0.964974
0.481974 0.965176
0.481997 0.965359
0.482021 0.965534
0.482044 0.965704
0.482067 0.965841
0.48209 0.965919
0.482114 0.965926
0.482137 0.965922
0.48216 0.965913
0.482183 0.965901
0.482207 0.965886
0.48223 0.965867
0.482253 0.965845
0.482276 0.96582
0.4823 0.965792
0.482323 0.965761
0.482346 0.965728
0.482369 0.965693
0.482393 0.965656
0.482416 0.965616
0.482439 0.965575
0.482462 0.965533
0.482486 0.965489
0.482509 0.965444
0.482532 0.965397
0.482556 0.96535
0.482579 0.965303
0.482602 0.965255
0.482625 0.965206
0.482649 0.965158
0.482672 0.965109
0.482695 0.965061
0.482719 0.965013
0.482742 0.964966
0.482765 0.96492
0.482789 0.964875
0.482812 0.964831
0.482835 0.964788
0.482859 0.964747
0.482882 0.964707
0.482905 0.964669
0.482928 0.964634
0.482952 0.964601
0.482975 0.96457
0.482998 0.964542
0.483022 0.964515
0.483045 0.964488
0.483068 0.96446
0.483092 0.964432
0.483115 0.964404
0.483138 0.964376
0.483162 0.964347
0.483185 0.964318
0.483209 0.96429
0.483232 0.964261
0.483255 0.964232
0.483279 0.964204
0.483302 0.964175
0.483325 0.964147
0.483349 0.964119
0.483372 0.964092
0.483395 0.964064
0.483419 0.964037
0.483442 0.964011
0.483465 0.963985
0.483489 0.963959
0.483512 0.963934
0.483536 0.96391
0.483559 0.963887
0.483582 0.963864
0.483606 0.963842
0.483629 0.963821
0.483653 0.963801
0.483676 0.963781
0.483699 0.963763
0.483723 0.963746
0.483746 0.96373
0.48377 0.963715
0.483793 0.963701
0.483816 0.963689
0.48384 0.963677
0.483863 0.963668
0.483887 0.963659
0.48391 0.963652
0.483933 0.963647
0.483957 0.963643
0.48398 0.963641
0.484004 0.96364
0.484027 0.963654
0.484051 0.963688
0.484074 0.96374
0.484097 0.963811
0.484121 0.9639
0.484144 0.964006
0.484168 0.964127
0.484191 0.964264
0.484215 0.964415
0.484238 0.96458
0.484262 0.964757
0.484285 0.964946
0.484308 0.965147
0.484332 0.965357
0.484355 0.965577
0.484379 0.965806
0.484402 0.966043
0.484426 0.966286
0.484449 0.966536
0.484473 0.966791
0.484496 0.967051
0.48452 0.967315
0.484543 0.967581
0.484567 0.96785
0.48459 0.96812
0.484614 0.96839
0.484637 0.968661
0.48466 0.96893
0.484684 0.969197
0.484707 0.969461
0.484731 0.969721
0.484754 0.969978
0.484778 0.970229
0.484801 0.970473
0.484825 0.970711
0.484848 0.970942
0.484872 0.971163
0.484896 0.971376
0.484919 0.971584
0.484943 0.971797
0.484966 0.972008
0.48499 0.97221
0.485013 0.972399
0.485037 0.972592
0.48506 0.97279
0.485084 0.972992
0.485107 0.973199
0.485131 0.973408
0.485154 0.97362
0.485178 0.973834
0.485201 0.974049
0.485225 0.974264
0.485248 0.974479
0.485272 0.974693
0.485296 0.974905
0.485319 0.975115
0.485343 0.975322
0.485366 0.975525
0.48539 0.975723
0.485413 0.975917
0.485437 0.976104
0.48546 0.976285
0.485484 0.976458
0.485508 0.976624
0.485531 0.976781
0.485555 0.976928
0.485578 0.977066
0.485602 0.977192
0.485625 0.977308
0.485649 0.977411
0.485673 0.977501
0.485696 0.977577
0.48572 0.97764
0.485743 0.977687
0.485767 0.977719
0.485791 0.977734
0.485814 0.977725
0.485838 0.977665
0.485861 0.977561
0.485885 0.977421
0.485909 0.977255
0.485932 0.97707
0.485956 0.976876
0.485979 0.976683
0.486003 0.976499
0.486027 0.976318
0.48605 0.976133
0.486074 0.975944
0.486098 0.975751
0.486121 0.975553
0.486145 0.97535
0.486169 0.975141
0.486192 0.974926
0.486216 0.974706
0.486239 0.974478
0.486263 0.974244
0.486287 0.974002
0.48631 0.973752
0.486334 0.973495
0.486358 0.973228
0.486381 0.972953
0.486405 0.972669
0.486429 0.972375
0.486452 0.972071
0.486476 0.971757
0.4865 0.971432
0.486523 0.971096
0.486547 0.970748
0.486571 0.970389
0.486594 0.970017
0.486618 0.969633
0.486642 0.969236
0.486665 0.968825
0.486689 0.968401
0.486713 0.967955
0.486736 0.967451
0.48676 0.966887
0.486784 0.966265
0.486808 0.965591
0.486831 0.964866
0.486855 0.964095
0.486879 0.963281
0.486902 0.962427
0.486926 0.961537
0.48695 0.960615
0.486973 0.959664
0.486997 0.958687
0.487021 0.957674
0.487045 0.956606
0.487068 0.955483
0.487092 0.954308
0.487116 0.95308
0.48714 0.951802
0.487163 0.950475
0.487187 0.9491
0.487211 0.947678
0.487234 0.946211
0.487258 0.944701
0.487282 0.943147
0.487306 0.941553
0.487329 0.939918
0.487353 0.938245
0.487377 0.936534
0.487401 0.934788
0.487424 0.933006
0.487448 0.931192
0.487472 0.929345
0.487496 0.927468
0.48752 0.925561
0.487543 0.923626
0.487567 0.921664
0.487591 0.919677
0.487615 0.917666
0.487638 0.915632
0.487662 0.913576
0.487686 0.911501
0.48771 0.909398
0.487734 0.907198
0.487757 0.904891
0.487781 0.902483
0.487805 0.899979
0.487829 0.897387
0.487852 0.894714
0.487876 0.891965
0.4879 0.889147
0.487924 0.886267
0.487948 0.883331
0.487972 0.880345
0.487995 0.877317
0.488019 0.874231
0.488043 0.871049
0.488067 0.867774
0.488091 0.864412
0.488114 0.860966
0.488138 0.857441
0.488162 0.853843
0.488186 0.850175
0.48821 0.846442
0.488234 0.84265
0.488257 0.838802
0.488281 0.834903
0.488305 0.830958
0.488329 0.826972
0.488353 0.822949
0.488377 0.818894
0.4884 0.814812
0.488424 0.810707
0.488448 0.806584
0.488472 0.802447
0.488496 0.798302
0.48852 0.794153
0.488544 0.790005
0.488568 0.785862
0.488591 0.78173
0.488615 0.777612
0.488639 0.773514
0.488663 0.76944
0.488687 0.765394
0.488711 0.761383
0.488735 0.75741
0.488759 0.75348
0.488782 0.749598
0.488806 0.745768
0.48883 0.741996
0.488854 0.738285
0.488878 0.734642
0.488902 0.73107
0.488926 0.727594
0.48895 0.724205
0.488974 0.720871
0.488998 0.717557
0.489021 0.714244
0.489045 0.710941
0.489069 0.707648
0.489093 0.704364
0.489117 0.70109
0.489141 0.697824
0.489165 0.694566
0.489189 0.691316
0.489213 0.688074
0.489237 0.684838
0.489261 0.681609
0.489285 0.678385
0.489309 0.675167
0.489333 0.671955
0.489356 0.668747
0.48938 0.665544
0.489404 0.662344
0.489428 0.659148
0.489452 0.655955
0.489476 0.652764
0.4895 0.649576
0.489524 0.646389
0.489548 0.643204
0.489572 0.640019
0.489596 0.636835
0.48962 0.633651
0.489644 0.630467
0.489668 0.627281
0.489692 0.624095
0.489716 0.620906
0.48974 0.617716
0.489764 0.614523
0.489788 0.611327
0.489812 0.608127
0.489836 0.604924
0.48986 0.601716
0.489884 0.598504
0.489908 0.595286
0.489932 0.592063
0.489956 0.588834
0.48998 0.585598
0.490004 0.582356
0.490028 0.579117
0.490052 0.575888
0.490076 0.572668
0.4901 0.569456
0.490124 0.566251
0.490148 0.563052
0.490172 0.559858
0.490196 0.556669
0.49022 0.553483
0.490244 0.5503
0.490268 0.547119
0.490292 0.543939
0.490316 0.540759
0.49034 0.537578
0.490364 0.534396
0.490388 0.531212
0.490412 0.528024
0.490436 0.524832
0.490461 0.521635
0.490485 0.518433
0.490509 0.515224
0.490533 0.512007
0.490557 0.508782
0.490581 0.505547
0.490605 0.502303
0.490629 0.499048
0.490653 0.49578
0.490677 0.4925
0.490701 0.489207
0.490725 0.485899
0.490749 0.482576
0.490773 0.479237
0.490798 0.47588
0.490822 0.472506
0.490846 0.469113
0.49087 0.465701
0.490894 0.462268
0.490918 0.458814
0.490942 0.455337
0.490966 0.451838
0.49099 0.448314
0.491014 0.444762
0.491039 0.441162
0.491063 0.437517
0.491087 0.433827
0.491111 0.430097
0.491135 0.426327
0.491159 0.422521
0.491183 0.418682
0.491207 0.414811
0.491232 0.410912
0.491256 0.406986
0.49128 0.403037
0.491304 0.399066
0.491328 0.395077
0.491352 0.391071
0.491376 0.387052
0.4914 0.383022
0.491425 0.378983
0.491449 0.374938
0.491473 0.37089
0.491497 0.366841
0.491521 0.362793
0.491545 0.358749
0.49157 0.354712
0.491594 0.350684
0.491618 0.346667
0.491642 0.342665
0.491666 0.33868
0.49169 0.334713
0.491715 0.330769
0.491739 0.326849
0.491763 0.322956
0.491787 0.319092
0.491811 0.31526
0.491836 0.311463
0.49186 0.307703
0.491884 0.303983
0.491908 0.300304
0.491932 0.296671
0.491957 0.293085
0.491981 0.289548
0.492005 0.286063
0.492029 0.282597
0.492053 0.279135
0.492078 0.275681
0.492102 0.27224
0.492126 0.268814
0.49215 0.265409
0.492174 0.262026
0.492199 0.25867
0.492223 0.255345
0.492247 0.252054
0.492271 0.248802
0.492296 0.245591
0.49232 0.242426
0.492344 0.239311
0.492368 0.236248
0.492393 0.233242
0.492417 0.230297
0.492441 0.227416
0.492465 0.224603
0.49249 0.221862
0.492514 0.219191
0.492538 0.21657
0.492562 0.213995
0.492587 0.211464
0.492611 0.208976
0.492635 0.206528
0.492659 0.204119
0.492684 0.201748
0.492708 0.199412
0.492732 0.19711
0.492756 0.19484
0.492781 0.192601
0.492805 0.190391
0.492829 0.188208
0.492854 0.18605
0.492878 0.183916
0.492902 0.181805
0.492927 0.179714
0.492951 0.177641
0.492975 0.175586
0.492999 0.173546
0.493024 0.171521
0.493048 0.16951
0.493072 0.167513
0.493097 0.16553
0.493121 0.163561
0.493145 0.161606
0.49317 0.159665
0.493194 0.157736
0.493218 0.155822
0.493243 0.15392
0.493267 0.152031
0.493291 0.150154
0.493316 0.148291
0.49334 0.146439
0.493364 0.1446
0.493389 0.142773
0.493413 0.140957
0.493437 0.139153
0.493462 0.13736
0.493486 0.135579
0.49351 0.133809
0.493535 0.13205
0.493559 0.130301
0.493583 0.128563
0.493608 0.126835
0.493632 0.125118
0.493657 0.123411
0.493681 0.121713
0.493705 0.120025
0.49373 0.118346
0.493754 0.116677
0.493778 0.115017
0.493803 0.113366
0.493827 0.111723
0.493852 0.110089
0.493876 0.108464
0.4939 0.106846
0.493925 0.105237
0.493949 0.103636
0.493974 0.102042
0.493998 0.100455
0.494022 0.098868
0.494047 0.09727
0.494071 0.095663
0.494096 0.094047
0.49412 0.092424
0.494144 0.090797
0.494169 0.089166
0.494193 0.087532
0.494218 0.085898
0.494242 0.084264
0.494267 0.082633
0.494291 0.081006
0.494315 0.079383
0.49434 0.077767
0.494364 0.07616
0.494389 0.074562
0.494413 0.072975
0.494438 0.071401
0.494462 0.069841
0.494486 0.068297
0.494511 0.066769
0.494535 0.065261
0.49456 0.063772
0.494584 0.062305
0.494609 0.060861
0.494633 0.059441
0.494658 0.058048
0.494682 0.056682
0.494707 0.055345
0.494731 0.054039
0.494756 0.052765
0.49478 0.051524
0.494805 0.050318
0.494829 0.049149
0.494854 0.048018
0.494878 0.046927
0.494903 0.045876
0.494927 0.044868
0.494951 0.043904
0.494976 0.042986
0.495 0.042115
0.495025 0.041272
0.49505 0.040441
0.495074 0.039622
0.495099 0.038813
0.495123 0.038016
0.495148 0.03723
0.495172 0.036456
0.495197 0.035694
0.495221 0.034943
0.495246 0.034204
0.49527 0.033476
0.495295 0.03276
0.495319 0.032057
0.495344 0.031365
0.495368 0.030685
0.495393 0.030017
0.495417 0.029361
0.495442 0.028717
0.495466 0.028086
0.495491 0.027467
0.495516 0.02686
0.49554 0.026265
0.495565 0.025683
0.495589 0.025114
0.495614 0.024557
0.495638 0.024012
0.495663 0.02348
0.495688 0.022961
0.495712 0.022455
0.495737 0.021962
0.495761 0.021481
0.495786 0.021013
0.49581 0.020559
0.495835 0.020117
0.49586 0.019689
0.495884 0.019274
0.495909 0.018872
0.495933 0.018483
0.495958 0.018108
0.495983 0.017746
0.496007 0.017397
0.496032 0.017056
0.496056 0.016719
0.496081 0.016388
0.496106 0.016062
0.49613 0.015741
0.496155 0.015425
0.496179 0.015114
0.496204 0.014808
0.496229 0.014507
0.496253 0.014212
0.496278 0.013922
0.496303 0.013636
0.496327 0.013356
0.496352 0.013081
0.496376 0.012811
0.496401 0.012546
0.496426 0.012286
0.49645 0.012031
0.496475 0.011782
0.4965 0.011537
0.496524 0.011298
0.496549 0.011063
0.496574 0.010834
0.496598 0.01061
0.496623 0.010391
0.496648 0.010177
0.496672 0.009968
0.496697 0.009764
0.496722 0.009565
0.496746 0.009371
0.496771 0.009182
0.496796 0.008999
0.49682 0.00882
0.496845 0.008646
0.49687 0.008478
0.496894 0.008314
0.496919 0.008156
0.496944 0.008003
0.496968 0.007854
0.496993 0.007711
0.497018 0.007572
0.497043 0.007435
0.497067 0.007301
0.497092 0.007168
0.497117 0.007038
0.497141 0.00691
0.497166 0.006784
0.497191 0.00666
0.497216 0.006538
0.49724 0.006418
0.497265 0.0063
0.49729 0.006185
0.497315 0.006071
0.497339 0.005959
0.497364 0.00585
0.497389 0.005743
0.497413 0.005637
0.497438 0.005534
0.497463 0.005432
0.497488 0.005333
0.497512 0.005236
0.497537 0.00514
0.497562 0.005047
0.497587 0.004955
0.497611 0.004866
0.497636 0.004779
0.497661 0.004693
0.497686 0.00461
0.497711 0.004528
0.497735 0.004448
0.49776 0.00437
0.497785 0.004295
0.49781 0.004221
0.497834 0.004149
0.497859 0.004078
0.497884 0.00401
0.497909 0.003944
0.497934 0.003879
0.497958 0.003817
0.497983 0.003756
0.498008 0.003697
0.498033 0.003639
0.498058 0.003582
0.498082 0.003527
0.498107 0.003472
0.498132 0.003418
0.498157 0.003365
0.498182 0.003314
0.498206 0.003263
0.498231 0.003213
0.498256 0.003164
0.498281 0.003116
0.498306 0.003068
0.498331 0.003022
0.498355 0.002976
0.49838 0.002932
0.498405 0.002888
0.49843 0.002845
0.498455 0.002802
0.49848 0.00276
0.498504 0.002719
0.498529 0.002679
0.498554 0.00264
0.498579 0.002601
0.498604 0.002563
0.498629 0.002525
0.498654 0.002488
0.498679 0.002452
0.498703 0.002416
0.498728 0.002381
0.498753 0.002346
0.498778 0.002312
0.498803 0.002279
0.498828 0.002246
0.498853 0.002213
0.498878 0.002181
0.498902 0.00215
0.498927 0.002119
0.498952 0.002088
0.498977 0.002058
0.499002 0.002028
# -------------------
# GOES17_ABI Band CH064
# -------------------
0.575109 0.002014
0.575142 0.002035
0.575175 0.002057
0.575209 0.002078
0.575242 0.002099
0.575275 0.002121
0.575308 0.002143
0.575341 0.002165
0.575374 0.002188
0.575407 0.00221
0.57544 0.002233
0.575473 0.002256
0.575506 0.002279
0.57554 0.002303
0.575573 0.002326
0.575606 0.00235
0.575639 0.002374
0.575672 0.002398
0.575705 0.002422
0.575738 0.002446
0.575772 0.002471
0.575805 0.002496
0.575838 0.00252
0.575871 0.002545
0.575904 0.002571
0.575937 0.002596
0.575971 0.002621
0.576004 0.002647
0.576037 0.002673
0.57607 0.002701
0.576103 0.00273
0.576136 0.002759
0.57617 0.002788
0.576203 0.002817
0.576236 0.002847
0.576269 0.002876
0.576302 0.002906
0.576336 0.002937
0.576369 0.002967
0.576402 0.002998
0.576435 0.003029
0.576469 0.00306
0.576502 0.003091
0.576535 0.003123
0.576568 0.003155
0.576602 0.003187
0.576635 0.00322
0.576668 0.003252
0.576701 0.003285
0.576735 0.003318
0.576768 0.003352
0.576801 0.003385
0.576834 0.003419
0.576868 0.003454
0.576901 0.003488
0.576934 0.003523
0.576967 0.003558
0.577001 0.003593
0.577034 0.00363
0.577067 0.00367
0.577101 0.003711
0.577134 0.003752
0.577167 0.003794
0.577201 0.003836
0.577234 0.003878
0.577267 0.003921
0.577301 0.003965
0.577334 0.004009
0.577367 0.004053
0.577401 0.004097
0.577434 0.004142
0.577467 0.004188
0.577501 0.004234
0.577534 0.00428
0.577567 0.004327
0.577601 0.004374
0.577634 0.004421
0.577667 0.004469
0.577701 0.004517
0.577734 0.004565
0.577768 0.004614
0.577801 0.004663
0.577834 0.004713
0.577868 0.004763
0.577901 0.004813
0.577934 0.004864
0.577968 0.004915
0.578001 0.004966
0.578035 0.005022
0.578068 0.005081
0.578102 0.00514
0.578135 0.0052
0.578168 0.005261
0.578202 0.005323
0.578235 0.005385
0.578269 0.005447
0.578302 0.005511
0.578336 0.005575
0.578369 0.005639
0.578402 0.005704
0.578436 0.00577
0.578469 0.005837
0.578503 0.005903
0.578536 0.005971
0.57857 0.006039
0.578603 0.006107
0.578637 0.006176
0.57867 0.006246
0.578704 0.006316
0.578737 0.006386
0.578771 0.006458
0.578804 0.006529
0.578838 0.006601
0.578871 0.006674
0.578905 0.006746
0.578938 0.00682
0.578972 0.006894
0.579005 0.006969
0.579039 0.007053
0.579072 0.007138
0.579106 0.007224
0.579139 0.00731
0.579173 0.007398
0.579206 0.007486
0.57924 0.007575
0.579274 0.007665
0.579307 0.007756
0.579341 0.007848
0.579374 0.00794
0.579408 0.008033
0.579441 0.008127
0.579475 0.008222
0.579509 0.008317
0.579542 0.008413
0.579576 0.00851
0.579609 0.008607
0.579643 0.008705
0.579677 0.008804
0.57971 0.008903
0.579744 0.009003
0.579777 0.009103
0.579811 0.009204
0.579845 0.009306
0.579878 0.009408
0.579912 0.009511
0.579945 0.009614
0.579979 0.009718
0.580013 0.009825
0.580046 0.009941
0.58008 0.010059
0.580114 0.010177
0.580147 0.010296
0.580181 0.010416
0.580215 0.010537
0.580248 0.010658
0.580282 0.010781
0.580316 0.010905
0.580349 0.01103
0.580383 0.011155
0.580417 0.011282
0.58045 0.011409
0.580484 0.011538
0.580518 0.011667
0.580552 0.011797
0.580585 0.011929
0.580619 0.012061
0.580653 0.012194
0.580686 0.012329
0.58072 0.012464
0.580754 0.0126
0.580788 0.012737
0.580821 0.012875
0.580855 0.013014
0.580889 0.013155
0.580923 0.013296
0.580956 0.013438
0.58099 0.013581
0.581024 0.013727
0.581058 0.013883
0.581091 0.014046
0.581125 0.014212
0.581159 0.014379
0.581193 0.014547
0.581226 0.014717
0.58126 0.014889
0.581294 0.015063
0.581328 0.015238
0.581362 0.015415
0.581395 0.015593
0.581429 0.015773
0.581463 0.015955
0.581497 0.016138
0.581531 0.016323
0.581564 0.016509
0.581598 0.016697
0.581632 0.016887
0.581666 0.017078
0.5817 0.01727
0.581734 0.017464
0.581767 0.01766
0.581801 0.017857
0.581835 0.018055
0.581869 0.018255
0.581903 0.018457
0.581937 0.01866
0.581971 0.018864
0.582004 0.01907
0.582038 0.019282
0.582072 0.019502
0.582106 0.01973
0.58214 0.019966
0.582174 0.020206
0.582208 0.020447
0.582242 0.020691
0.582276 0.020937
0.582309 0.021186
0.582343 0.021437
0.582377 0.021691
0.582411 0.021947
0.582445 0.022205
0.582479 0.022466
0.582513 0.022729
0.582547 0.022995
0.582581 0.023263
0.582615 0.023534
0.582649 0.023807
0.582683 0.024082
0.582717 0.02436
0.582751 0.024641
0.582785 0.024923
0.582819 0.025209
0.582852 0.025496
0.582886 0.025786
0.58292 0.026079
0.582954 0.026374
0.582988 0.026672
0.583022 0.026973
0.583056 0.027283
0.58309 0.027603
0.583124 0.027932
0.583158 0.028272
0.583192 0.028621
0.583226 0.028976
0.58326 0.029335
0.583294 0.029699
0.583328 0.030067
0.583363 0.030439
0.583397 0.030816
0.583431 0.031197
0.583465 0.031583
0.583499 0.031972
0.583533 0.032366
0.583567 0.032763
0.583601 0.033165
0.583635 0.03357
0.583669 0.03398
0.583703 0.034393
0.583737 0.03481
0.583771 0.03523
0.583805 0.035654
0.583839 0.036082
0.583873 0.036513
0.583908 0.036948
0.583942 0.037386
0.583976 0.037828
0.58401 0.038273
0.584044 0.038727
0.584078 0.039191
0.584112 0.039667
0.584146 0.040154
0.58418 0.040652
0.584215 0.041161
0.584249 0.04168
0.584283 0.042206
0.584317 0.042738
0.584351 0.043276
0.584385 0.04382
0.584419 0.04437
0.584454 0.044926
0.584488 0.045488
0.584522 0.046055
0.584556 0.046629
0.58459 0.047208
0.584624 0.047792
0.584659 0.048383
0.584693 0.048979
0.584727 0.049581
0.584761 0.050188
0.584795 0.050801
0.58483 0.051419
0.584864 0.052043
0.584898 0.052672
0.584932 0.053307
0.584966 0.053947
0.585001 0.054592
0.585035 0.055245
0.585069 0.055908
0.585103 0.056583
0.585138 0.057272
0.585172 0.057976
0.585206 0.058697
0.58524 0.059436
0.585274 0.060194
0.585309 0.060974
0.585343 0.061775
0.585377 0.062596
0.585412 0.063436
0.585446 0.064293
0.58548 0.065165
0.585514 0.066051
0.585549 0.066949
0.585583 0.067858
0.585617 0.068776
0.585652 0.069702
0.585686 0.070634
0.58572 0.07157
0.585754 0.072509
0.585789 0.07345
0.585823 0.074391
0.585857 0.07533
0.585892 0.076266
0.585926 0.077197
0.58596 0.078121
0.585995 0.079038
0.586029 0.079954
0.586063 0.080883
0.586098 0.081819
0.586132 0.08276
0.586166 0.0837
0.586201 0.084634
0.586235 0.08556
0.58627 0.086472
0.586304 0.087366
0.586338 0.088238
0.586373 0.08909
0.586407 0.08993
0.586441 0.090757
0.586476 0.091574
0.58651 0.092382
0.586545 0.093181
0.586579 0.093973
0.586613 0.094759
0.586648 0.095539
0.586682 0.096316
0.586717 0.097089
0.586751 0.09786
0.586786 0.098631
0.58682 0.099401
0.586854 0.100173
0.586889 0.100947
0.586923 0.101725
0.586958 0.102507
0.586992 0.103294
0.587027 0.104085
0.587061 0.104871
0.587096 0.105653
0.58713 0.106432
0.587165 0.107208
0.587199 0.107981
0.587234 0.108753
0.587268 0.109523
0.587303 0.110292
0.587337 0.11106
0.587372 0.111829
0.587406 0.112598
0.587441 0.113368
0.587475 0.11414
0.58751 0.114914
0.587544 0.115691
0.587579 0.116471
0.587613 0.117254
0.587648 0.118041
0.587682 0.118834
0.587717 0.119631
0.587751 0.120434
0.587786 0.121243
0.58782 0.122059
0.587855 0.122882
0.587889 0.123713
0.587924 0.124552
0.587959 0.125399
0.587993 0.126256
0.588028 0.127128
0.588062 0.12802
0.588097 0.128934
0.588132 0.129865
0.588166 0.130813
0.588201 0.131772
0.588235 0.132738
0.58827 0.133709
0.588305 0.134686
0.588339 0.13567
0.588374 0.13666
0.588408 0.137656
0.588443 0.138658
0.588478 0.139667
0.588512 0.140682
0.588547 0.141704
0.588582 0.142732
0.588616 0.143767
0.588651 0.144808
0.588685 0.145856
0.58872 0.146911
0.588755 0.147973
0.588789 0.149041
0.588824 0.150117
0.588859 0.151199
0.588893 0.152289
0.588928 0.153385
0.588963 0.154489
0.588998 0.1556
0.589032 0.156719
0.589067 0.157848
0.589102 0.158986
0.589136 0.160133
0.589171 0.161289
0.589206 0.162453
0.58924 0.163626
0.589275 0.164807
0.58931 0.165995
0.589345 0.16719
0.589379 0.168393
0.589414 0.169602
0.589449 0.170818
0.589484 0.17204
0.589518 0.173267
0.589553 0.1745
0.589588 0.175739
0.589623 0.176982
0.589657 0.178231
0.589692 0.179483
0.589727 0.18074
0.589762 0.182
0.589797 0.183264
0.589831 0.184531
0.589866 0.185801
0.589901 0.187074
0.589936 0.188349
0.589971 0.189626
0.590005 0.190905
0.59004 0.192242
0.590075 0.19361
0.59011 0.194985
0.590145 0.196369
0.590179 0.19776
0.590214 0.199158
0.590249 0.200565
0.590284 0.201978
0.590319 0.2034
0.590354 0.204829
0.590388 0.206265
0.590423 0.207709
0.590458 0.209161
0.590493 0.210619
0.590528 0.212085
0.590563 0.213559
0.590598 0.215039
0.590633 0.216527
0.590667 0.218021
0.590702 0.219523
0.590737 0.221032
0.590772 0.222548
0.590807 0.224071
0.590842 0.225601
0.590877 0.227138
0.590912 0.228682
0.590947 0.230232
0.590982 0.231789
0.591017 0.233354
0.591051 0.234931
0.591086 0.236521
0.591121 0.238123
0.591156 0.239737
0.591191 0.241362
0.591226 0.242997
0.591261 0.244642
0.591296 0.246296
0.591331 0.247959
0.591366 0.24963
0.591401 0.251308
0.591436 0.252993
0.591471 0.254684
0.591506 0.256381
0.591541 0.258082
0.591576 0.259788
0.591611 0.261498
0.591646 0.263211
0.591681 0.264927
0.591716 0.266644
0.591751 0.268363
0.591786 0.270082
0.591821 0.271801
0.591856 0.27352
0.591891 0.275238
0.591926 0.27696
0.591961 0.278698
0.591996 0.280465
0.592031 0.282256
0.592066 0.284054
0.592101 0.285858
0.592136 0.287669
0.592171 0.289486
0.592207 0.291309
0.592242 0.293139
0.592277 0.294975
0.592312 0.296817
0.592347 0.298665
0.592382 0.30052
0.592417 0.30238
0.592452 0.304247
0.592487 0.306119
0.592522 0.307998
0.592557 0.309883
0.592593 0.311773
0.592628 0.313669
0.592663 0.315572
0.592698 0.31748
0.592733 0.319393
0.592768 0.321313
0.592803 0.323238
0.592839 0.325169
0.592874 0.327105
0.592909 0.329047
0.592944 0.330994
0.592979 0.332947
0.593014 0.334906
0.593049 0.336874
0.593085 0.338853
0.59312 0.340841
0.593155 0.342839
0.59319 0.344846
0.593225 0.34686
0.593261 0.348883
0.593296 0.350913
0.593331 0.35295
0.593366 0.354994
0.593401 0.357044
0.593437 0.359099
0.593472 0.361159
0.593507 0.363224
0.593542 0.365294
0.593577 0.367366
0.593613 0.369443
0.593648 0.371522
0.593683 0.373603
0.593718 0.375686
0.593754 0.377771
0.593789 0.379859
0.593824 0.381953
0.593859 0.384056
0.593895 0.386169
0.59393 0.388296
0.593965 0.390438
0.594001 0.392597
0.594036 0.39477
0.594071 0.39695
0.594106 0.399139
0.594142 0.401334
0.594177 0.403537
0.594212 0.405747
0.594248 0.407963
0.594283 0.410186
0.594318 0.412415
0.594354 0.414651
0.594389 0.416892
0.594424 0.419138
0.59446 0.42139
0.594495 0.423646
0.59453 0.425908
0.594566 0.428174
0.594601 0.430444
0.594636 0.432718
0.594672 0.434997
0.594707 0.437278
0.594742 0.439563
0.594778 0.441851
0.594813 0.444142
0.594849 0.446435
0.594884 0.448731
0.594919 0.451029
0.594955 0.453329
0.59499 0.45563
0.595026 0.457934
0.595061 0.460243
0.595096 0.462558
0.595132 0.464879
0.595167 0.467205
0.595203 0.469537
0.595238 0.471874
0.595274 0.474217
0.595309 0.476565
0.595344 0.478918
0.59538 0.481277
0.595415 0.48364
0.595451 0.486009
0.595486 0.488382
0.595522 0.490761
0.595557 0.493145
0.595593 0.495537
0.595628 0.497938
0.595664 0.500346
0.595699 0.502761
0.595735 0.505182
0.59577 0.507609
0.595806 0.510039
0.595841 0.512472
0.595877 0.514908
0.595912 0.517346
0.595948 0.519784
0.595983 0.522222
0.596019 0.52466
0.596054 0.527107
0.59609 0.529563
0.596125 0.532028
0.596161 0.5345
0.596196 0.536978
0.596232 0.539461
0.596267 0.541949
0.596303 0.54444
0.596338 0.546933
0.596374 0.549428
0.59641 0.551923
0.596445 0.554417
0.596481 0.556909
0.596516 0.559399
0.596552 0.561885
0.596588 0.564366
0.596623 0.566841
0.596659 0.56931
0.596694 0.571771
0.59673 0.574224
0.596766 0.576666
0.596801 0.579098
0.596837 0.581518
0.596872 0.583925
0.596908 0.586319
0.596944 0.588697
0.596979 0.59106
0.597015 0.593407
0.597051 0.59574
0.597086 0.598055
0.597122 0.600349
0.597158 0.602617
0.597193 0.604855
0.597229 0.607058
0.597265 0.609227
0.5973 0.611369
0.597336 0.613489
0.597372 0.615588
0.597407 0.617667
0.597443 0.61973
0.597479 0.621777
0.597514 0.623812
0.59755 0.625836
0.597586 0.62785
0.597621 0.629858
0.597657 0.631861
0.597693 0.633861
0.597729 0.63586
0.597764 0.63786
0.5978 0.639864
0.597836 0.641872
0.597872 0.643888
0.597907 0.645913
0.597943 0.647949
0.597979 0.649998
0.598015 0.652061
0.59805 0.654119
0.598086 0.656169
0.598122 0.658213
0.598158 0.660252
0.598193 0.662287
0.598229 0.66432
0.598265 0.666351
0.598301 0.668383
0.598337 0.670416
0.598372 0.672452
0.598408 0.674492
0.598444 0.676537
0.59848 0.67859
0.598516 0.68065
0.598552 0.68272
0.598587 0.684801
0.598623 0.686894
0.598659 0.689001
0.598695 0.691122
0.598731 0.693259
0.598767 0.695414
0.598802 0.697587
0.598838 0.699781
0.598874 0.701996
0.59891 0.704234
0.598946 0.7065
0.598982 0.708868
0.599018 0.711311
0.599053 0.71379
0.599089 0.716301
0.599125 0.718841
0.599161 0.721407
0.599197 0.723996
0.599233 0.726607
0.599269 0.729234
0.599305 0.731876
0.599341 0.734531
0.599377 0.737193
0.599413 0.739862
0.599449 0.742534
0.599484 0.745206
0.59952 0.747875
0.599556 0.750538
0.599592 0.753192
0.599628 0.755835
0.599664 0.758463
0.5997 0.761074
0.599736 0.763664
0.599772 0.766231
0.599808 0.768772
0.599844 0.771283
0.59988 0.773762
0.599916 0.776206
0.599952 0.778612
0.599988 0.780968
0.600024 0.783141
0.60006 0.785292
0.600096 0.787439
0.600132 0.789579
0.600168 0.791713
0.600204 0.793839
0.60024 0.795956
0.600276 0.798062
0.600312 0.800157
0.600348 0.80224
0.600384 0.804309
0.60042 0.806363
0.600456 0.808401
0.600492 0.810423
0.600528 0.812426
0.600565 0.81441
0.600601 0.816374
0.600637 0.818316
0.600673 0.820235
0.600709 0.822131
0.600745 0.824002
0.600781 0.825846
0.600817 0.827664
0.600853 0.829453
0.600889 0.831213
0.600925 0.832942
0.600962 0.834585
0.600998 0.83612
0.601034 0.837607
0.60107 0.839091
0.601106 0.84057
0.601142 0.842042
0.601178 0.843507
0.601214 0.844964
0.601251 0.846411
0.601287 0.847847
0.601323 0.84927
0.601359 0.85068
0.601395 0.852075
0.601431 0.853455
0.601468 0.854816
0.601504 0.85616
0.60154 0.857483
0.601576 0.858786
0.601612 0.860066
0.601649 0.861323
0.601685 0.862555
0.601721 0.863761
0.601757 0.86494
0.601793 0.86609
0.60183 0.867211
0.601866 0.8683
0.601902 0.869339
0.601938 0.870311
0.601974 0.871228
0.602011 0.872101
0.602047 0.872957
0.602083 0.873801
0.602119 0.874636
0.602156 0.87546
0.602192 0.876274
0.602228 0.877077
0.602265 0.87787
0.602301 0.878652
0.602337 0.879424
0.602373 0.880185
0.60241 0.880935
0.602446 0.881675
0.602482 0.882404
0.602519 0.883122
0.602555 0.88383
0.602591 0.884526
0.602627 0.885212
0.602664 0.885887
0.6027 0.886551
0.602736 0.887204
0.602773 0.887846
0.602809 0.888477
0.602845 0.889091
0.602882 0.889684
0.602918 0.890253
0.602954 0.890798
0.602991 0.891318
0.603027 0.89182
0.603064 0.892322
0.6031 0.892823
0.603136 0.893322
0.603173 0.893818
0.603209 0.894309
0.603245 0.894795
0.603282 0.895273
0.603318 0.895744
0.603355 0.896206
0.603391 0.896657
0.603427 0.897097
0.603464 0.897524
0.6035 0.897938
0.603537 0.898336
0.603573 0.898719
0.60361 0.899084
0.603646 0.89943
0.603682 0.899757
0.603719 0.900062
0.603755 0.900346
0.603792 0.900607
0.603828 0.900848
0.603865 0.901071
0.603901 0.901281
0.603938 0.90148
0.603974 0.901671
0.604011 0.901858
0.604047 0.902043
0.604084 0.902225
0.60412 0.902404
0.604157 0.90258
0.604193 0.902753
0.60423 0.902923
0.604266 0.90309
0.604303 0.903254
0.604339 0.903414
0.604376 0.903571
0.604412 0.903723
0.604449 0.903872
0.604485 0.904017
0.604522 0.904158
0.604558 0.904294
0.604595 0.904426
0.604631 0.904554
0.604668 0.904677
0.604705 0.904795
0.604741 0.904907
0.604778 0.905015
0.604814 0.905117
0.604851 0.905216
0.604887 0.90531
0.604924 0.905402
0.604961 0.90549
0.604997 0.905576
0.605034 0.90566
0.60507 0.905742
0.605107 0.905821
0.605144 0.905899
0.60518 0.905975
0.605217 0.906049
0.605254 0.906122
0.60529 0.906194
0.605327 0.906265
0.605364 0.906334
0.6054 0.906403
0.605437 0.906472
0.605473 0.90654
0.60551 0.906607
0.605547 0.906675
0.605583 0.906742
0.60562 0.90681
0.605657 0.906878
0.605694 0.906944
0.60573 0.90701
0.605767 0.907075
0.605804 0.907139
0.60584 0.907203
0.605877 0.907266
0.605914 0.90733
0.60595 0.907394
0.605987 0.907459
0.606024 0.907524
0.606061 0.907589
0.606097 0.907655
0.606134 0.907721
0.606171 0.907787
0.606208 0.907853
0.606244 0.90792
0.606281 0.907986
0.606318 0.908052
0.606355 0.908118
0.606391 0.908184
0.606428 0.908249
0.606465 0.908314
0.606502 0.908379
0.606538 0.908443
0.606575 0.908506
0.606612 0.908568
0.606649 0.908628
0.606686 0.908686
0.606722 0.908743
0.606759 0.9088
0.606796 0.908857
0.606833 0.908915
0.60687 0.908975
0.606907 0.909038
0.606943 0.909104
0.60698 0.909174
0.607017 0.909248
0.607054 0.909326
0.607091 0.909408
0.607128 0.909492
0.607165 0.909581
0.607201 0.909672
0.607238 0.909767
0.607275 0.909865
0.607312 0.909966
0.607349 0.910071
0.607386 0.910179
0.607423 0.91029
0.60746 0.910404
0.607497 0.910521
0.607533 0.910642
0.60757 0.91077
0.607607 0.910906
0.607644 0.911048
0.607681 0.911197
0.607718 0.911351
0.607755 0.91151
0.607792 0.911673
0.607829 0.911839
0.607866 0.912008
0.607903 0.912179
0.60794 0.912351
0.607977 0.912523
0.608014 0.912696
0.608051 0.912872
0.608088 0.913053
0.608125 0.913238
0.608162 0.913427
0.608199 0.913618
0.608236 0.913811
0.608273 0.914007
0.60831 0.914203
0.608347 0.9144
0.608384 0.914597
0.608421 0.914793
0.608458 0.914989
0.608495 0.915184
0.608532 0.91538
0.608569 0.915578
0.608606 0.915776
0.608643 0.915975
0.60868 0.916175
0.608717 0.916376
0.608754 0.916576
0.608791 0.916776
0.608828 0.916976
0.608865 0.917176
0.608902 0.917375
0.608939 0.917573
0.608976 0.91777
0.609013 0.917966
0.60905 0.918163
0.609088 0.918362
0.609125 0.918561
0.609162 0.91876
0.609199 0.918958
0.609236 0.919153
0.609273 0.919346
0.60931 0.919536
0.609347 0.919721
0.609385 0.9199
0.609422 0.920074
0.609459 0.920245
0.609496 0.920415
0.609533 0.920581
0.60957 0.920746
0.609607 0.920909
0.609645 0.921069
0.609682 0.921227
0.609719 0.921383
0.609756 0.921537
0.609793 0.921688
0.60983 0.921836
0.609868 0.921982
0.609905 0.922126
0.609942 0.922267
0.609979 0.922405
0.610016 0.922541
0.610054 0.922672
0.610091 0.922799
0.610128 0.922922
0.610165 0.923044
0.610203 0.923163
0.61024 0.923281
0.610277 0.923399
0.610314 0.923518
0.610352 0.923638
0.610389 0.923758
0.610426 0.923879
0.610463 0.924
0.610501 0.92412
0.610538 0.924241
0.610575 0.924361
0.610612 0.924481
0.61065 0.924601
0.610687 0.92472
0.610724 0.924839
0.610762 0.924957
0.610799 0.925074
0.610836 0.925191
0.610874 0.925307
0.610911 0.925422
0.610948 0.925536
0.610986 0.925649
0.611023 0.925761
0.61106 0.925874
0.611098 0.925987
0.611135 0.926098
0.611172 0.926207
0.61121 0.926314
0.611247 0.926416
0.611284 0.926513
0.611322 0.926607
0.611359 0.926701
0.611396 0.926795
0.611434 0.926889
0.611471 0.926982
0.611509 0.927074
0.611546 0.927165
0.611583 0.927255
0.611621 0.927342
0.611658 0.927427
0.611696 0.92751
0.611733 0.927589
0.61177 0.927666
0.611808 0.927739
0.611845 0.927809
0.611883 0.927874
0.61192 0.927935
0.611958 0.927991
0.611995 0.928042
0.612033 0.928088
0.61207 0.928128
0.612107 0.928163
0.612145 0.928197
0.612182 0.928231
0.61222 0.928268
0.612257 0.928306
0.612295 0.928345
0.612332 0.928384
0.61237 0.928424
0.612407 0.928463
0.612445 0.928502
0.612482 0.928542
0.61252 0.928582
0.612557 0.928622
0.612595 0.928663
0.612632 0.928704
0.61267 0.928745
0.612708 0.928787
0.612745 0.928829
0.612783 0.928872
0.61282 0.928915
0.612858 0.92896
0.612895 0.929004
0.612933 0.92905
0.61297 0.929096
0.613008 0.929143
0.613046 0.929198
0.613083 0.929257
0.613121 0.929313
0.613158 0.929357
0.613196 0.929387
0.613234 0.929414
0.613271 0.929441
0.613309 0.929466
0.613346 0.929489
0.613384 0.929512
0.613422 0.929534
0.613459 0.929555
0.613497 0.929574
0.613535 0.929593
0.613572 0.92961
0.61361 0.929627
0.613648 0.929642
0.613685 0.929656
0.613723 0.92967
0.613761 0.929682
0.613798 0.929694
0.613836 0.929705
0.613874 0.929714
0.613911 0.929723
0.613949 0.929731
0.613987 0.929738
0.614024 0.929745
0.614062 0.929751
0.6141 0.929754
0.614137 0.929754
0.614175 0.929749
0.614213 0.929742
0.614251 0.929731
0.614288 0.929718
0.614326 0.929703
0.614364 0.929685
0.614402 0.929665
0.614439 0.929644
0.614477 0.929622
0.614515 0.929599
0.614553 0.929575
0.61459 0.929551
0.614628 0.929526
0.614666 0.929502
0.614704 0.929479
0.614742 0.929456
0.614779 0.929435
0.614817 0.929415
0.614855 0.929397
0.614893 0.929381
0.614931 0.929367
0.614968 0.929356
0.615006 0.929348
0.615044 0.929343
0.615082 0.929337
0.61512 0.929329
0.615157 0.929321
0.615195 0.929312
0.615233 0.929303
0.615271 0.929293
0.615309 0.929282
0.615347 0.929272
0.615385 0.929261
0.615422 0.92925
0.61546 0.929238
0.615498 0.929227
0.615536 0.929216
0.615574 0.929206
0.615612 0.929196
0.61565 0.929186
0.615688 0.929177
0.615726 0.929168
0.615764 0.92916
0.615801 0.929154
0.615839 0.929148
0.615877 0.929143
0.615915 0.929139
0.615953 0.929137
0.615991 0.929136
0.616029 0.92915
0.616067 0.929168
0.616105 0.929189
0.616143 0.929213
0.616181 0.92924
0.616219 0.929268
0.616257 0.9293
0.616295 0.929334
0.616333 0.929371
0.616371 0.92941
0.616409 0.929452
0.616447 0.929496
0.616485 0.929543
0.616523 0.929592
0.616561 0.929643
0.616599 0.929697
0.616637 0.929753
0.616675 0.929811
0.616713 0.929872
0.616751 0.929935
0.616789 0.93
0.616827 0.930067
0.616865 0.930136
0.616903 0.930208
0.616941 0.930282
0.616979 0.930391
0.617017 0.930518
0.617055 0.93065
0.617093 0.930788
0.617132 0.93093
0.61717 0.931077
0.617208 0.931228
0.617246 0.931383
0.617284 0.931542
0.617322 0.931705
0.61736 0.931871
0.617398 0.93204
0.617436 0.932212
0.617475 0.932386
0.617513 0.932563
0.617551 0.932742
0.617589 0.932922
0.617627 0.933105
0.617665 0.933288
0.617703 0.933473
0.617742 0.933658
0.61778 0.933844
0.617818 0.93403
0.617856 0.934216
0.617894 0.934402
0.617932 0.934594
0.617971 0.934795
0.618009 0.935007
0.618047 0.935228
0.618085 0.935453
0.618123 0.935685
0.618162 0.935921
0.6182 0.936161
0.618238 0.936406
0.618276 0.936655
0.618314 0.936907
0.618353 0.937162
0.618391 0.93742
0.618429 0.937681
0.618467 0.937944
0.618506 0.938208
0.618544 0.938474
0.618582 0.938741
0.61862 0.939008
0.618659 0.939276
0.618697 0.939544
0.618735 0.939812
0.618774 0.940079
0.618812 0.940345
0.61885 0.940612
0.618888 0.940882
0.618927 0.941155
0.618965 0.941431
0.619003 0.94171
0.619042 0.941991
0.61908 0.942275
0.619118 0.942561
0.619157 0.942848
0.619195 0.943137
0.619233 0.943428
0.619272 0.94372
0.61931 0.944013
0.619348 0.944307
0.619387 0.944601
0.619425 0.944896
0.619464 0.945192
0.619502 0.945487
0.61954 0.945783
0.619579 0.946078
0.619617 0.946373
0.619655 0.946668
0.619694 0.946961
0.619732 0.947254
0.619771 0.947545
0.619809 0.947838
0.619848 0.948131
0.619886 0.948424
0.619924 0.948715
0.619963 0.949004
0.620001 0.94929
0.62004 0.949575
0.620078 0.949859
0.620117 0.950144
0.620155 0.950428
0.620194 0.950712
0.620232 0.950995
0.62027 0.951277
0.620309 0.951558
0.620347 0.951838
0.620386 0.952116
0.620424 0.952392
0.620463 0.952666
0.620501 0.952938
0.62054 0.953208
0.620578 0.953474
0.620617 0.953738
0.620655 0.953999
0.620694 0.954256
0.620732 0.954509
0.620771 0.95476
0.62081 0.955006
0.620848 0.955249
0.620887 0.955489
0.620925 0.955725
0.620964 0.955957
0.621002 0.956185
0.621041 0.956412
0.621079 0.956638
0.621118 0.956864
0.621157 0.957088
0.621195 0.957311
0.621234 0.957532
0.621272 0.957751
0.621311 0.957968
0.62135 0.958182
0.621388 0.958393
0.621427 0.9586
0.621465 0.958803
0.621504 0.959002
0.621543 0.959197
0.621581 0.959386
0.62162 0.959571
0.621659 0.95975
0.621697 0.959924
0.621736 0.960094
0.621775 0.960259
0.621813 0.96042
0.621852 0.960578
0.621891 0.960731
0.621929 0.960881
0.621968 0.961028
0.622007 0.961172
0.622045 0.961312
0.622084 0.961446
0.622123 0.961576
0.622161 0.961703
0.6222 0.961827
0.622239 0.96195
0.622278 0.962071
0.622316 0.962192
0.622355 0.962313
0.622394 0.962435
0.622432 0.962559
0.622471 0.962686
0.62251 0.962816
0.622549 0.96295
0.622587 0.96309
0.622626 0.963238
0.622665 0.963393
0.622704 0.963554
0.622743 0.963718
0.622781 0.963884
0.62282 0.964048
0.622859 0.964209
0.622898 0.964364
0.622937 0.964512
0.622975 0.964651
0.623014 0.964778
0.623053 0.964908
0.623092 0.965042
0.623131 0.965178
0.623169 0.965313
0.623208 0.965445
0.623247 0.965571
0.623286 0.96569
0.623325 0.965799
0.623364 0.965895
0.623403 0.965976
0.623441 0.96604
0.62348 0.966085
0.623519 0.966107
0.623558 0.96612
0.623597 0.966131
0.623636 0.966142
0.623675 0.966151
0.623714 0.96616
0.623752 0.966168
0.623791 0.966175
0.62383 0.96618
0.623869 0.966185
0.623908 0.966188
0.623947 0.966191
0.623986 0.966192
0.624025 0.96619
0.624064 0.96618
0.624103 0.966163
0.624142 0.96614
0.624181 0.966112
0.62422 0.966082
0.624259 0.966051
0.624298 0.966019
0.624337 0.965989
0.624376 0.965962
0.624415 0.96594
0.624454 0.965923
0.624493 0.96591
0.624532 0.965897
0.624571 0.965884
0.62461 0.965872
0.624649 0.96586
0.624688 0.965849
0.624727 0.965839
0.624766 0.965829
0.624805 0.965821
0.624844 0.965813
0.624883 0.965808
0.624922 0.965803
0.624961 0.9658
0.625 0.9658
0.625039 0.965802
0.625078 0.96581
0.625117 0.965822
0.625156 0.965836
0.625195 0.965851
0.625234 0.965866
0.625274 0.965881
0.625313 0.965892
0.625352 0.965901
0.625391 0.965904
0.62543 0.965901
0.625469 0.965889
0.625508 0.965871
0.625547 0.965846
0.625586 0.965817
0.625626 0.965783
0.625665 0.965747
0.625704 0.965708
0.625743 0.965668
0.625782 0.965627
0.625821 0.965588
0.625861 0.96555
0.6259 0.965515
0.625939 0.965483
0.625978 0.965457
0.626017 0.965435
0.626056 0.965412
0.626096 0.96539
0.626135 0.965368
0.626174 0.965347
0.626213 0.965329
0.626253 0.965315
0.626292 0.965305
0.626331 0.965302
0.62637 0.965305
0.626409 0.965317
0.626449 0.965337
0.626488 0.965363
0.626527 0.965396
0.626566 0.965435
0.626606 0.965479
0.626645 0.965527
0.626684 0.96558
0.626723 0.965636
0.626763 0.965694
0.626802 0.965755
0.626841 0.965818
0.626881 0.965881
0.62692 0.965945
0.626959 0.966009
0.626999 0.966071
0.627038 0.96614
0.627077 0.966222
0.627117 0.966312
0.627156 0.966406
0.627195 0.966499
0.627235 0.966588
0.627274 0.966667
0.627313 0.96674
0.627353 0.96681
0.627392 0.966878
0.627431 0.966945
0.627471 0.967009
0.62751 0.967073
0.627549 0.967134
0.627589 0.967195
0.627628 0.967255
0.627668 0.967315
0.627707 0.967373
0.627746 0.967432
0.627786 0.967491
0.627825 0.96755
0.627865 0.967609
0.627904 0.967669
0.627943 0.967729
0.627983 0.967791
0.628022 0.967853
0.628062 0.967912
0.628101 0.967971
0.628141 0.968032
0.62818 0.968098
0.62822 0.968172
0.628259 0.968255
0.628299 0.968344
0.628338 0.968441
0.628378 0.968544
0.628417 0.968652
0.628457 0.968764
0.628496 0.968881
0.628536 0.969002
0.628575 0.969125
0.628615 0.969251
0.628654 0.969378
0.628694 0.969506
0.628733 0.969635
0.628773 0.969763
0.628812 0.969891
0.628852 0.970017
0.628891 0.970141
0.628931 0.970262
0.62897 0.97038
0.62901 0.970494
0.62905 0.970605
0.629089 0.970716
0.629129 0.970826
0.629168 0.970937
0.629208 0.971046
0.629247 0.971152
0.629287 0.971257
0.629327 0.97136
0.629366 0.971463
0.629406 0.971565
0.629445 0.971666
0.629485 0.971768
0.629525 0.971871
0.629564 0.971974
0.629604 0.972078
0.629644 0.972185
0.629683 0.972293
0.629723 0.972403
0.629763 0.972517
0.629802 0.972634
0.629842 0.972754
0.629882 0.972878
0.629921 0.973007
0.629961 0.97314
0.630001 0.973279
0.63004 0.973434
0.63008 0.973609
0.63012 0.97379
0.630159 0.973977
0.630199 0.974169
0.630239 0.974366
0.630279 0.974567
0.630318 0.974771
0.630358 0.974979
0.630398 0.97519
0.630438 0.975404
0.630477 0.97562
0.630517 0.975837
0.630557 0.976056
0.630597 0.976276
0.630636 0.976496
0.630676 0.976717
0.630716 0.976937
0.630756 0.977157
0.630795 0.977375
0.630835 0.977592
0.630875 0.977807
0.630915 0.978019
0.630955 0.978229
0.630994 0.978435
0.631034 0.978635
0.631074 0.978822
0.631114 0.979008
0.631154 0.979193
0.631194 0.979377
0.631233 0.97956
0.631273 0.979741
0.631313 0.979921
0.631353 0.980099
0.631393 0.980276
0.631433 0.98045
0.631473 0.980622
0.631512 0.980792
0.631552 0.980959
0.631592 0.981124
0.631632 0.981286
0.631672 0.981446
0.631712 0.981602
0.631752 0.981756
0.631792 0.981906
0.631832 0.982052
0.631872 0.982195
0.631912 0.982335
0.631951 0.98247
0.631991 0.982596
0.632031 0.98271
0.632071 0.982823
0.632111 0.982935
0.632151 0.983046
0.632191 0.983156
0.632231 0.983266
0.632271 0.983374
0.632311 0.983482
0.632351 0.983589
0.632391 0.983696
0.632431 0.983802
0.632471 0.983907
0.632511 0.984013
0.632551 0.984117
0.632591 0.984222
0.632631 0.984327
0.632671 0.984431
0.632711 0.984535
0.632751 0.98464
0.632791 0.984744
0.632831 0.984849
0.632871 0.984954
0.632911 0.985059
0.632951 0.985162
0.632992 0.985267
0.633032 0.985373
0.633072 0.985481
0.633112 0.985589
0.633152 0.985698
0.633192 0.985807
0.633232 0.985916
0.633272 0.986027
0.633312 0.986137
0.633352 0.986248
0.633392 0.98636
0.633433 0.986471
0.633473 0.986584
0.633513 0.986696
0.633553 0.986809
0.633593 0.986922
0.633633 0.987035
0.633673 0.987149
0.633714 0.987262
0.633754 0.987376
0.633794 0.98749
0.633834 0.987605
0.633874 0.98772
0.633914 0.987836
0.633955 0.987953
0.633995 0.988069
0.634035 0.988183
0.634075 0.988298
0.634115 0.988414
0.634156 0.988531
0.634196 0.988648
0.634236 0.988766
0.634276 0.988883
0.634317 0.988999
0.634357 0.989115
0.634397 0.98923
0.634437 0.989343
0.634478 0.989455
0.634518 0.989565
0.634558 0.989673
0.634598 0.989779
0.634639 0.989881
0.634679 0.989981
0.634719 0.990078
0.634759 0.990171
0.6348 0.99026
0.63484 0.990343
0.63488 0.990421
0.634921 0.990497
0.634961 0.990573
0.635001 0.99065
0.635042 0.990728
0.635082 0.990806
0.635122 0.990884
0.635163 0.990961
0.635203 0.991039
0.635243 0.991116
0.635284 0.991193
0.635324 0.99127
0.635364 0.991347
0.635405 0.991424
0.635445 0.991501
0.635486 0.991578
0.635526 0.991655
0.635566 0.991733
0.635607 0.991811
0.635647 0.991889
0.635687 0.991967
0.635728 0.992046
0.635768 0.992125
0.635809 0.992204
0.635849 0.992284
0.63589 0.992364
0.63593 0.992444
0.63597 0.992525
0.636011 0.992606
0.636051 0.99269
0.636092 0.992776
0.636132 0.992864
0.636173 0.992954
0.636213 0.993045
0.636254 0.993136
0.636294 0.993227
0.636335 0.993317
0.636375 0.993405
0.636416 0.993491
0.636456 0.993575
0.636497 0.993655
0.636537 0.993732
0.636578 0.993804
0.636618 0.993871
0.636659 0.993932
0.636699 0.993992
0.63674 0.994052
0.63678 0.994111
0.636821 0.994166
0.636862 0.994217
0.636902 0.994261
0.636943 0.994298
0.636983 0.994324
0.637024 0.994341
0.637064 0.994357
0.637105 0.994372
0.637146 0.994386
0.637186 0.994399
0.637227 0.994411
0.637267 0.994422
0.637308 0.994432
0.637349 0.99444
0.637389 0.994448
0.63743 0.994454
0.637471 0.994459
0.637511 0.994463
0.637552 0.994465
0.637592 0.994466
0.637633 0.994465
0.637674 0.994464
0.637714 0.994461
0.637755 0.994458
0.637796 0.994454
0.637836 0.994449
0.637877 0.994444
0.637918 0.994438
0.637959 0.994431
0.637999 0.994424
0.63804 0.994411
0.638081 0.994389
0.638121 0.994359
0.638162 0.99432
0.638203 0.994275
0.638244 0.994225
0.638284 0.99417
0.638325 0.994112
0.638366 0.994051
0.638407 0.993988
0.638447 0.993926
0.638488 0.993864
0.638529 0.993803
0.63857 0.993742
0.63861 0.993675
0.638651 0.993605
0.638692 0.993532
0.638733 0.993455
0.638774 0.993376
0.638814 0.993295
0.638855 0.993213
0.638896 0.99313
0.638937 0.993046
0.638978 0.992963
0.639018 0.992882
0.639059 0.9928
0.6391 0.992719
0.639141 0.992638
0.639182 0.992555
0.639223 0.992471
0.639264 0.992385
0.639304 0.992296
0.639345 0.992203
0.639386 0.992107
0.639427 0.992006
0.639468 0.991899
0.639509 0.991782
0.63955 0.991658
0.639591 0.991527
0.639632 0.991391
0.639672 0.991251
0.639713 0.991109
0.639754 0.990965
0.639795 0.990821
0.639836 0.990678
0.639877 0.990538
0.639918 0.990402
0.639959 0.990271
0.64 0.990146
0.640041 0.990024
0.640082 0.989901
0.640123 0.989778
0.640164 0.989657
0.640205 0.989541
0.640246 0.989432
0.640287 0.98933
0.640328 0.98924
0.640369 0.98916
0.64041 0.989087
0.640451 0.98902
0.640492 0.988957
0.640533 0.988899
0.640574 0.988843
0.640615 0.98879
0.640656 0.988739
0.640697 0.988688
0.640738 0.988638
0.640779 0.988587
0.64082 0.988534
0.640861 0.98848
0.640902 0.988422
0.640943 0.988361
0.640985 0.988295
0.641026 0.988224
0.641067 0.988149
0.641108 0.988069
0.641149 0.987986
0.64119 0.987899
0.641231 0.987808
0.641272 0.987712
0.641313 0.987604
0.641355 0.987487
0.641396 0.98736
0.641437 0.987226
0.641478 0.987086
0.641519 0.986943
0.64156 0.986797
0.641601 0.986652
0.641643 0.986507
0.641684 0.986366
0.641725 0.98623
0.641766 0.9861
0.641807 0.985979
0.641849 0.985868
0.64189 0.985769
0.641931 0.985683
0.641972 0.985613
0.642013 0.985559
0.642055 0.985509
0.642096 0.985465
0.642137 0.985438
0.642178 0.985435
0.64222 0.985452
0.642261 0.985485
0.642302 0.985535
0.642343 0.985598
0.642385 0.985675
0.642426 0.985763
0.642467 0.985862
0.642508 0.98597
0.64255 0.986086
0.642591 0.986209
0.642632 0.986337
0.642674 0.986469
0.642715 0.986604
0.642756 0.98674
0.642797 0.986876
0.642839 0.987011
0.64288 0.987143
0.642921 0.987272
0.642963 0.987395
0.643004 0.987513
0.643045 0.987634
0.643087 0.98776
0.643128 0.987887
0.64317 0.988015
0.643211 0.988143
0.643252 0.988272
0.643294 0.988401
0.643335 0.988531
0.643376 0.988662
0.643418 0.988794
0.643459 0.988926
0.643501 0.989059
0.643542 0.989193
0.643583 0.989328
0.643625 0.989464
0.643666 0.989601
0.643708 0.989739
0.643749 0.989878
0.643791 0.990019
0.643832 0.99016
0.643874 0.990302
0.643915 0.990446
0.643956 0.990591
0.643998 0.99074
0.644039 0.990896
0.644081 0.991052
0.644122 0.991207
0.644164 0.991364
0.644205 0.99152
0.644247 0.991677
0.644288 0.991834
0.64433 0.991992
0.644371 0.99215
0.644413 0.99231
0.644454 0.99247
0.644496 0.992631
0.644538 0.992793
0.644579 0.992956
0.644621 0.99312
0.644662 0.993285
0.644704 0.993452
0.644745 0.993621
0.644787 0.99379
0.644828 0.993962
0.64487 0.994135
0.644912 0.994312
0.644953 0.994497
0.644995 0.99468
0.645036 0.99486
0.645078 0.995042
0.64512 0.995224
0.645161 0.995408
0.645203 0.995592
0.645245 0.995777
0.645286 0.995961
0.645328 0.996144
0.645369 0.996325
0.645411 0.996505
0.645453 0.996683
0.645494 0.996858
0.645536 0.99703
0.645578 0.997198
0.645619 0.997362
0.645661 0.997521
0.645703 0.997675
0.645745 0.997824
0.645786 0.997967
0.645828 0.998104
0.64587 0.998236
0.645911 0.998361
0.645953 0.998478
0.645995 0.998587
0.646037 0.998693
0.646078 0.998802
0.64612 0.998915
0.646162 0.999029
0.646204 0.999143
0.646245 0.999255
0.646287 0.999365
0.646329 0.999471
0.646371 0.999571
0.646412 0.999664
0.646454 0.999748
0.646496 0.999823
0.646538 0.999886
0.64658 0.999937
0.646621 0.999974
0.646663 0.999995
0.646705 1.0
0.646747 0.999999
0.646789 0.999998
0.646831 0.999997
0.646872 0.999995
0.646914 0.999992
0.646956 0.999989
0.646998 0.999986
0.64704 0.999977
0.647082 0.999957
0.647124 0.999926
0.647165 0.999887
0.647207 0.99984
0.647249 0.999785
0.647291 0.999726
0.647333 0.999661
0.647375 0.999594
0.647417 0.999524
0.647459 0.999452
0.647501 0.999381
0.647543 0.999312
0.647585 0.999244
0.647626 0.999179
0.647668 0.999111
0.64771 0.999041
0.647752 0.998967
0.647794 0.998891
0.647836 0.998812
0.647878 0.998729
0.64792 0.998642
0.647962 0.998552
0.648004 0.998458
0.648046 0.998359
0.648088 0.998255
0.64813 0.998145
0.648172 0.99803
0.648214 0.99791
0.648256 0.997786
0.648298 0.997659
0.64834 0.997528
0.648382 0.997394
0.648424 0.997257
0.648466 0.997118
0.648508 0.996978
0.64855 0.996834
0.648593 0.996687
0.648635 0.996536
0.648677 0.996381
0.648719 0.996222
0.648761 0.996058
0.648803 0.99589
0.648845 0.995718
0.648887 0.995541
0.648929 0.995359
0.648971 0.995172
0.649013 0.994979
0.649056 0.99478
0.649098 0.994574
0.64914 0.994361
0.649182 0.99414
0.649224 0.993912
0.649266 0.993677
0.649308 0.993434
0.649351 0.993184
0.649393 0.992927
0.649435 0.992661
0.649477 0.992382
0.649519 0.992089
0.649562 0.991785
0.649604 0.991471
0.649646 0.991149
0.649688 0.990821
0.64973 0.990487
0.649773 0.99015
0.649815 0.989812
0.649857 0.989473
0.649899 0.989136
0.649942 0.988802
0.649984 0.988473
0.650026 0.988148
0.650068 0.987821
0.650111 0.987493
0.650153 0.987164
0.650195 0.986836
0.650237 0.986508
0.65028 0.986183
0.650322 0.985862
0.650364 0.985542
0.650407 0.985224
0.650449 0.984907
0.650491 0.984592
0.650533 0.984278
0.650576 0.983964
0.650618 0.983651
0.65066 0.98334
0.650703 0.983028
0.650745 0.982717
0.650787 0.982407
0.65083 0.982097
0.650872 0.981786
0.650915 0.981476
0.650957 0.981166
0.650999 0.980855
0.651042 0.980543
0.651084 0.980228
0.651126 0.979915
0.651169 0.979607
0.651211 0.979306
0.651254 0.979012
0.651296 0.978721
0.651339 0.978431
0.651381 0.978144
0.651423 0.977859
0.651466 0.977576
0.651508 0.977295
0.651551 0.977016
0.651593 0.97674
0.651636 0.976465
0.651678 0.976193
0.651721 0.975923
0.651763 0.975655
0.651806 0.975389
0.651848 0.975126
0.65189 0.974864
0.651933 0.974605
0.651975 0.974348
0.652018 0.974095
0.652061 0.973851
0.652103 0.973611
0.652146 0.973366
0.652188 0.973114
0.652231 0.972855
0.652273 0.972592
0.652316 0.972325
0.652358 0.972054
0.652401 0.971782
0.652443 0.971509
0.652486 0.971237
0.652529 0.970966
0.652571 0.970697
0.652614 0.970432
0.652656 0.970172
0.652699 0.969917
0.652742 0.969669
0.652784 0.969429
0.652827 0.969199
0.652869 0.968978
0.652912 0.968768
0.652955 0.968571
0.652997 0.968387
0.65304 0.968239
0.653083 0.968115
0.653125 0.967992
0.653168 0.967872
0.653211 0.967754
0.653253 0.967639
0.653296 0.967527
0.653339 0.967417
0.653381 0.96731
0.653424 0.967206
0.653467 0.967106
0.653509 0.967009
0.653552 0.966916
0.653595 0.966826
0.653637 0.96674
0.65368 0.966659
0.653723 0.966581
0.653766 0.966508
0.653808 0.96644
0.653851 0.966376
0.653894 0.966317
0.653937 0.966263
0.653979 0.966219
0.654022 0.966184
0.654065 0.966151
0.654108 0.966116
0.654151 0.966082
0.654193 0.966048
0.654236 0.966015
0.654279 0.965982
0.654322 0.96595
0.654365 0.965919
0.654407 0.965889
0.65445 0.965861
0.654493 0.965835
0.654536 0.965811
0.654579 0.965789
0.654622 0.96577
0.654664 0.965754
0.654707 0.965741
0.65475 0.965731
0.654793 0.965725
0.654836 0.965723
0.654879 0.965749
0.654922 0.965823
0.654965 0.965921
0.655008 0.966022
0.65505 0.96613
0.655093 0.966256
0.655136 0.966397
0.655179 0.966551
0.655222 0.966717
0.655265 0.966892
0.655308 0.967076
0.655351 0.967265
0.655394 0.967458
0.655437 0.967653
0.65548 0.967848
0.655523 0.968042
0.655566 0.968233
0.655609 0.968418
0.655652 0.968596
0.655695 0.968765
0.655738 0.968923
0.655781 0.969072
0.655824 0.969217
0.655867 0.969358
0.65591 0.969495
0.655953 0.969629
0.655996 0.969758
0.656039 0.969881
0.656082 0.969998
0.656125 0.97011
0.656168 0.970217
0.656211 0.97032
0.656254 0.970422
0.656297 0.970524
0.65634 0.970625
0.656383 0.970729
0.656426 0.970836
0.65647 0.970947
0.656513 0.971064
0.656556 0.971188
0.656599 0.971319
0.656642 0.97146
0.656685 0.971616
0.656728 0.97179
0.656771 0.971979
0.656814 0.972179
0.656858 0.972385
0.656901 0.972595
0.656944 0.972803
0.656987 0.973007
0.65703 0.973206
0.657073 0.973415
0.657117 0.973631
0.65716 0.973851
0.657203 0.974074
0.657246 0.974295
0.657289 0.974513
0.657333 0.974725
0.657376 0.974928
0.657419 0.975119
0.657462 0.975295
0.657505 0.975454
0.657549 0.975594
0.657592 0.975715
0.657635 0.975826
0.657678 0.975928
0.657722 0.976023
0.657765 0.976113
0.657808 0.976199
0.657851 0.976284
0.657895 0.976369
0.657938 0.976457
0.657981 0.976549
0.658025 0.976646
0.658068 0.97675
0.658111 0.976856
0.658155 0.976965
0.658198 0.977074
0.658241 0.977181
0.658285 0.977285
0.658328 0.977385
0.658371 0.977478
0.658415 0.977564
0.658458 0.977639
0.658501 0.97771
0.658545 0.97778
0.658588 0.977848
0.658631 0.977915
0.658675 0.977979
0.658718 0.97804
0.658762 0.978097
0.658805 0.97815
0.658848 0.978198
0.658892 0.978241
0.658935 0.978278
0.658979 0.978308
0.659022 0.978332
0.659065 0.978351
0.659109 0.978366
0.659152 0.97838
0.659196 0.978392
0.659239 0.978405
0.659283 0.978419
0.659326 0.978436
0.65937 0.978458
0.659413 0.978489
0.659457 0.97853
0.6595 0.978578
0.659544 0.978632
0.659587 0.978689
0.659631 0.97875
0.659674 0.97881
0.659718 0.978869
0.659761 0.978926
0.659805 0.978977
0.659848 0.979021
0.659892 0.979057
0.659935 0.979083
0.659979 0.979097
0.660022 0.979097
0.660066 0.97909
0.66011 0.979076
0.660153 0.979058
0.660197 0.979036
0.66024 0.979011
0.660284 0.978981
0.660328 0.978931
0.660371 0.978861
0.660415 0.978773
0.660458 0.978669
0.660502 0.978553
0.660546 0.978426
0.660589 0.978292
0.660633 0.978152
0.660677 0.978009
0.66072 0.977865
0.660764 0.977724
0.660808 0.977587
0.660851 0.977457
0.660895 0.977337
0.660939 0.977228
0.660982 0.977134
0.661026 0.977051
0.66107 0.976962
0.661113 0.97689
0.661157 0.976856
0.661201 0.976862
0.661244 0.976881
0.661288 0.976912
0.661332 0.976955
0.661376 0.977008
0.661419 0.977071
0.661463 0.977143
0.661507 0.977222
0.661551 0.977309
0.661594 0.977401
0.661638 0.977499
0.661682 0.9776
0.661726 0.977705
0.66177 0.977813
0.661813 0.977922
0.661857 0.978031
0.661901 0.97814
0.661945 0.978248
0.661989 0.978353
0.662032 0.978469
0.662076 0.978594
0.66212 0.978711
0.662164 0.978826
0.662208 0.978939
0.662252 0.97905
0.662296 0.97916
0.662339 0.979269
0.662383 0.979377
0.662427 0.979484
0.662471 0.979592
0.662515 0.979699
0.662559 0.979806
0.662603 0.979914
0.662647 0.980023
0.662691 0.980134
0.662734 0.980245
0.662778 0.980359
0.662822 0.980474
0.662866 0.980592
0.66291 0.980713
0.662954 0.980836
0.662998 0.980968
0.663042 0.9811
0.663086 0.981232
0.66313 0.981363
0.663174 0.981494
0.663218 0.981625
0.663262 0.981756
0.663306 0.981886
0.66335 0.982016
0.663394 0.982145
0.663438 0.982274
0.663482 0.982403
0.663526 0.982531
0.66357 0.982658
0.663614 0.982785
0.663658 0.982911
0.663702 0.983037
0.663746 0.983161
0.66379 0.983285
0.663834 0.983409
0.663878 0.983532
0.663922 0.983663
0.663967 0.983785
0.664011 0.983878
0.664055 0.983957
0.664099 0.984035
0.664143 0.984112
0.664187 0.984187
0.664231 0.98426
0.664275 0.98433
0.664319 0.984396
0.664364 0.984458
0.664408 0.984517
0.664452 0.98457
0.664496 0.984618
0.66454 0.98466
0.664584 0.984696
0.664628 0.984725
0.664673 0.984746
0.664717 0.98476
0.664761 0.984766
0.664805 0.984761
0.664849 0.984744
0.664894 0.984722
0.664938 0.984698
0.664982 0.984679
0.665026 0.984667
0.66507 0.984657
0.665115 0.984647
0.665159 0.984637
0.665203 0.984627
0.665247 0.984618
0.665292 0.984609
0.665336 0.984601
0.66538 0.984594
0.665425 0.984587
0.665469 0.984581
0.665513 0.984577
0.665557 0.984573
0.665602 0.984571
0.665646 0.984569
0.66569 0.98457
0.665735 0.984582
0.665779 0.984602
0.665823 0.98463
0.665868 0.984663
0.665912 0.9847
0.665956 0.984738
0.666001 0.984774
0.666045 0.984817
0.666089 0.984872
0.666134 0.984937
0.666178 0.985008
0.666223 0.985082
0.666267 0.985158
0.666311 0.985233
0.666356 0.985302
0.6664 0.985365
0.666445 0.985418
0.666489 0.985458
0.666533 0.985482
0.666578 0.985489
0.666622 0.985472
0.666667 0.985431
0.666711 0.985371
0.666756 0.985295
0.6668 0.985206
0.666844 0.985107
0.666889 0.985002
0.666933 0.984894
0.666978 0.984787
0.667022 0.984679
0.667067 0.984546
0.667111 0.984391
0.667156 0.98422
0.6672 0.984038
0.667245 0.983852
0.667289 0.983669
0.667334 0.983495
0.667379 0.983335
0.667423 0.983197
0.667468 0.983087
0.667512 0.982997
0.667557 0.982915
0.667601 0.982839
0.667646 0.982769
0.66769 0.982703
0.667735 0.982641
0.66778 0.982583
0.667824 0.982526
0.667869 0.982471
0.667913 0.982417
0.667958 0.982363
0.668003 0.982309
0.668047 0.982257
0.668092 0.982209
0.668137 0.982165
0.668181 0.982121
0.668226 0.982077
0.668271 0.98203
0.668315 0.981979
0.66836 0.981922
0.668405 0.981858
0.668449 0.981788
0.668494 0.981712
0.668539 0.981632
0.668583 0.981546
0.668628 0.981456
0.668673 0.981362
0.668717 0.981263
0.668762 0.981161
0.668807 0.981055
0.668852 0.980945
0.668896 0.980833
0.668941 0.980718
0.668986 0.9806
0.669031 0.980477
0.669075 0.980341
0.66912 0.980194
0.669165 0.98004
0.66921 0.979882
0.669254 0.979725
0.669299 0.979571
0.669344 0.979417
0.669389 0.979261
0.669434 0.979104
0.669478 0.978946
0.669523 0.978787
0.669568 0.978627
0.669613 0.978466
0.669658 0.978304
0.669703 0.97814
0.669748 0.977976
0.669792 0.97781
0.669837 0.977643
0.669882 0.977476
0.669927 0.977307
0.669972 0.977136
0.670017 0.976966
0.670062 0.976796
0.670107 0.976622
0.670151 0.976438
0.670196 0.976236
0.670241 0.976019
0.670286 0.975789
0.670331 0.975548
0.670376 0.975296
0.670421 0.975036
0.670466 0.974769
0.670511 0.974498
0.670556 0.974223
0.670601 0.973947
0.670646 0.973672
0.670691 0.973398
0.670736 0.973127
0.670781 0.972862
0.670826 0.972604
0.670871 0.972355
0.670916 0.972116
0.670961 0.97189
0.671006 0.971677
0.671051 0.971486
0.671096 0.971308
0.671141 0.971131
0.671186 0.970954
0.671231 0.970778
0.671276 0.970603
0.671321 0.970429
0.671366 0.970256
0.671411 0.970085
0.671456 0.969916
0.671501 0.969749
0.671547 0.969584
0.671592 0.969422
0.671637 0.969263
0.671682 0.969107
0.671727 0.968955
0.671772 0.968806
0.671817 0.968661
0.671862 0.968521
0.671908 0.968385
0.671953 0.968253
0.671998 0.968133
0.672043 0.968022
0.672088 0.96791
0.672133 0.967798
0.672179 0.967686
0.672224 0.967573
0.672269 0.967461
0.672314 0.96735
0.672359 0.967239
0.672405 0.967129
0.67245 0.96702
0.672495 0.966913
0.67254 0.966808
0.672585 0.966704
0.672631 0.966603
0.672676 0.966504
0.672721 0.966407
0.672766 0.966313
0.672812 0.966223
0.672857 0.966135
0.672902 0.966055
0.672948 0.965983
0.672993 0.965907
0.673038 0.965823
0.673083 0.965739
0.673129 0.965656
0.673174 0.965572
0.673219 0.965486
0.673265 0.965399
0.67331 0.965309
0.673355 0.965216
0.673401 0.96512
0.673446 0.96502
0.673491 0.964914
0.673537 0.964804
0.673582 0.964687
0.673627 0.964564
0.673673 0.964434
0.673718 0.964296
0.673764 0.96415
0.673809 0.963987
0.673854 0.963797
0.6739 0.963579
0.673945 0.963333
0.673991 0.963057
0.674036 0.962748
0.674082 0.962402
0.674127 0.962018
0.674172 0.961597
0.674218 0.961142
0.674263 0.960652
0.674309 0.960129
0.674354 0.959574
0.6744 0.958988
0.674445 0.958371
0.674491 0.957726
0.674536 0.957053
0.674582 0.956353
0.674627 0.955627
0.674673 0.954875
0.674718 0.954045
0.674764 0.953107
0.674809 0.952072
0.674855 0.95095
0.6749 0.949751
0.674946 0.948487
0.674992 0.947166
0.675037 0.945788
0.675083 0.94433
0.675128 0.942794
0.675174 0.941177
0.675219 0.939479
0.675265 0.937701
0.675311 0.935841
0.675356 0.933899
0.675402 0.931875
0.675447 0.929768
0.675493 0.927577
0.675539 0.925303
0.675584 0.92293
0.67563 0.920328
0.675676 0.917494
0.675721 0.914465
0.675767 0.911274
0.675813 0.907959
0.675858 0.904553
0.675904 0.901093
0.67595 0.897614
0.675995 0.894151
0.676041 0.890644
0.676087 0.886988
0.676133 0.883217
0.676178 0.879364
0.676224 0.875464
0.67627 0.871552
0.676315 0.867663
0.676361 0.86383
0.676407 0.860089
0.676453 0.856474
0.676498 0.85299
0.676544 0.849574
0.67659 0.846217
0.676636 0.842909
0.676682 0.839644
0.676727 0.836415
0.676773 0.833212
0.676819 0.83003
0.676865 0.82686
0.676911 0.823695
0.676956 0.820527
0.677002 0.817349
0.677048 0.814167
0.677094 0.810989
0.67714 0.807817
0.677186 0.80465
0.677231 0.801489
0.677277 0.798335
0.677323 0.795187
0.677369 0.792047
0.677415 0.788914
0.677461 0.78579
0.677507 0.782673
0.677553 0.779566
0.677599 0.776468
0.677645 0.77338
0.67769 0.770301
0.677736 0.767233
0.677782 0.764176
0.677828 0.76113
0.677874 0.758096
0.67792 0.755074
0.677966 0.752065
0.678012 0.749068
0.678058 0.746091
0.678104 0.743138
0.67815 0.740211
0.678196 0.737314
0.678242 0.734449
0.678288 0.731616
0.678334 0.728804
0.67838 0.72601
0.678426 0.723233
0.678472 0.720472
0.678518 0.717726
0.678564 0.714993
0.67861 0.712273
0.678656 0.709563
0.678702 0.706864
0.678748 0.704173
0.678794 0.701489
0.678841 0.698811
0.678887 0.696138
0.678933 0.693469
0.678979 0.690802
0.679025 0.68814
0.679071 0.685497
0.679117 0.682875
0.679163 0.68027
0.679209 0.677681
0.679256 0.675103
0.679302 0.672536
0.679348 0.669975
0.679394 0.66742
0.67944 0.664867
0.679486 0.662313
0.679532 0.659757
0.679579 0.657195
0.679625 0.654625
0.679671 0.652044
0.679717 0.64945
0.679763 0.646841
0.67981 0.644213
0.679856 0.641565
0.679902 0.638893
0.679948 0.636195
0.679995 0.633469
0.680041 0.630719
0.680087 0.627957
0.680133 0.625183
0.68018 0.622397
0.680226 0.619597
0.680272 0.616784
0.680318 0.613957
0.680365 0.611116
0.680411 0.60826
0.680457 0.605389
0.680504 0.602502
0.68055 0.5996
0.680596 0.596682
0.680643 0.593747
0.680689 0.590795
0.680735 0.587826
0.680782 0.584839
0.680828 0.581834
0.680874 0.57881
0.680921 0.575768
0.680967 0.572706
0.681013 0.56959
0.68106 0.566298
0.681106 0.562983
0.681153 0.559647
0.681199 0.55629
0.681245 0.552911
0.681292 0.549513
0.681338 0.546095
0.681385 0.542657
0.681431 0.539202
0.681477 0.535728
0.681524 0.532237
0.68157 0.528729
0.681617 0.525205
0.681663 0.521666
0.68171 0.518111
0.681756 0.514542
0.681803 0.51096
0.681849 0.507364
0.681896 0.503755
0.681942 0.500134
0.681989 0.496501
0.682035 0.492852
0.682082 0.489173
0.682128 0.485465
0.682175 0.481732
0.682221 0.477974
0.682268 0.474195
0.682314 0.470396
0.682361 0.466581
0.682408 0.46275
0.682454 0.458907
0.682501 0.455053
0.682547 0.451191
0.682594 0.447323
0.68264 0.443451
0.682687 0.439578
0.682734 0.435705
0.68278 0.431835
0.682827 0.427971
0.682874 0.424114
0.68292 0.420267
0.682967 0.416431
0.683013 0.412611
0.68306 0.408817
0.683107 0.405027
0.683153 0.401208
0.6832 0.397329
0.683247 0.393391
0.683293 0.389407
0.68334 0.385384
0.683387 0.381328
0.683434 0.377245
0.68348 0.373142
0.683527 0.369023
0.683574 0.364895
0.68362 0.360765
0.683667 0.356637
0.683714 0.352519
0.683761 0.348416
0.683807 0.344334
0.683854 0.340279
0.683901 0.336257
0.683948 0.332275
0.683995 0.328339
0.684041 0.324428
0.684088 0.32051
0.684135 0.316586
0.684182 0.312663
0.684229 0.308743
0.684275 0.304831
0.684322 0.300932
0.684369 0.297049
0.684416 0.293187
0.684463 0.28935
0.68451 0.285542
0.684556 0.281768
0.684603 0.278031
0.68465 0.274336
0.684697 0.270687
0.684744 0.267088
0.684791 0.263545
0.684838 0.26006
0.684885 0.256638
0.684932 0.253303
0.684978 0.250164
0.685025 0.247121
0.685072 0.244088
0.685119 0.241062
0.685166 0.238045
0.685213 0.235038
0.68526 0.232044
0.685307 0.229063
0.685354 0.226099
0.685401 0.223153
0.685448 0.220225
0.685495 0.217319
0.685542 0.214437
0.685589 0.211579
0.685636 0.208747
0.685683 0.205944
0.68573 0.203172
0.685777 0.200431
0.685824 0.197724
0.685871 0.195053
0.685918 0.19242
0.685965 0.189825
0.686012 0.187271
0.686059 0.184752
0.686106 0.182264
0.686153 0.179808
0.686201 0.177384
0.686248 0.174993
0.686295 0.172636
0.686342 0.170312
0.686389 0.168022
0.686436 0.165767
0.686483 0.163548
0.68653 0.161364
0.686577 0.159216
0.686625 0.157104
0.686672 0.155034
0.686719 0.153008
0.686766 0.151026
0.686813 0.149086
0.68686 0.147183
0.686908 0.145317
0.686955 0.143486
0.687002 0.141686
0.687049 0.139917
0.687096 0.138178
0.687144 0.136468
0.687191 0.134782
0.687238 0.13312
0.687285 0.131477
0.687332 0.129852
0.68738 0.128242
0.687427 0.126645
0.687474 0.125058
0.687521 0.123478
0.687569 0.121903
0.687616 0.120331
0.687663 0.118758
0.687711 0.117183
0.687758 0.115602
0.687805 0.114014
0.687853 0.112415
0.6879 0.110803
0.687947 0.109175
0.687994 0.107529
0.688042 0.105876
0.688089 0.104229
0.688137 0.102578
0.688184 0.100914
0.688231 0.099227
0.688279 0.097506
0.688326 0.095743
0.688373 0.093923
0.688421 0.092053
0.688468 0.090141
0.688516 0.088197
0.688563 0.086229
0.68861 0.084247
0.688658 0.082259
0.688705 0.080275
0.688753 0.078304
0.6888 0.076355
0.688848 0.074437
0.688895 0.07256
0.688942 0.070732
0.68899 0.068962
0.689037 0.067241
0.689085 0.065541
0.689132 0.06388
0.68918 0.062276
0.689227 0.060749
0.689275 0.059316
0.689322 0.057947
0.68937 0.05661
0.689417 0.055304
0.689465 0.054028
0.689513 0.052782
0.68956 0.051563
0.689608 0.050372
0.689655 0.049207
0.689703 0.048068
0.68975 0.046953
0.689798 0.045861
0.689845 0.044792
0.689893 0.043744
0.689941 0.042716
0.689988 0.041709
0.690036 0.040726
0.690084 0.039782
0.690131 0.038878
0.690179 0.038013
0.690226 0.037188
0.690274 0.036391
0.690322 0.035608
0.690369 0.034838
0.690417 0.034081
0.690465 0.033338
0.690512 0.032607
0.69056 0.03189
0.690608 0.031186
0.690655 0.030495
0.690703 0.029817
0.690751 0.029152
0.690799 0.0285
0.690846 0.027861
0.690894 0.027235
0.690942 0.026622
0.690989 0.026023
0.691037 0.02544
0.691085 0.024885
0.691133 0.024357
0.691181 0.023855
0.691228 0.023372
0.691276 0.022897
0.691324 0.022429
0.691372 0.021969
0.691419 0.021516
0.691467 0.02107
0.691515 0.020632
0.691563 0.0202
0.691611 0.019776
0.691659 0.01936
0.691706 0.018951
0.691754 0.018549
0.691802 0.018154
0.69185 0.017767
0.691898 0.017386
0.691946 0.017014
0.691994 0.016648
0.692042 0.016295
0.692089 0.015961
0.692137 0.015645
0.692185 0.015343
0.692233 0.015046
0.692281 0.014752
0.692329 0.014462
0.692377 0.014176
0.692425 0.013894
0.692473 0.013616
0.692521 0.013342
0.692569 0.013072
0.692617 0.012807
0.692665 0.012546
0.692713 0.012289
0.692761 0.012036
0.692809 0.011788
0.692857 0.011545
0.692905 0.011306
0.692953 0.011071
0.693001 0.010842
0.693049 0.010623
0.693097 0.010419
0.693145 0.010226
0.693193 0.010037
0.693241 0.00985
0.693289 0.009665
0.693337 0.009482
0.693385 0.009302
0.693433 0.009124
0.693481 0.008949
0.693529 0.008777
0.693577 0.008607
0.693626 0.008439
0.693674 0.008274
0.693722 0.008112
0.69377 0.007953
0.693818 0.007797
0.693866 0.007643
0.693914 0.007492
0.693963 0.007344
0.694011 0.0072
0.694059 0.007064
0.694107 0.006939
0.694155 0.006818
0.694203 0.006699
0.694252 0.006581
0.6943 0.006465
0.694348 0.00635
0.694396 0.006237
0.694444 0.006126
0.694493 0.006016
0.694541 0.005908
0.694589 0.005801
0.694637 0.005695
0.694686 0.005592
0.694734 0.005489
0.694782 0.005388
0.69483 0.005289
0.694879 0.005191
0.694927 0.005094
0.694975 0.004999
0.695024 0.004906
0.695072 0.004819
0.69512 0.004737
0.695169 0.004656
0.695217 0.004575
0.695265 0.004496
0.695314 0.004417
0.695362 0.004339
0.69541 0.004262
0.695459 0.004186
0.695507 0.004111
0.695555 0.004036
0.695604 0.003963
0.695652 0.00389
0.695701 0.003819
0.695749 0.003749
0.695797 0.003679
0.695846 0.003611
0.695894 0.003544
0.695943 0.003478
0.695991 0.003413
0.69604 0.003351
0.696088 0.003294
0.696136 0.003239
0.696185 0.003185
0.696233 0.003131
0.696282 0.003077
0.69633 0.003024
0.696379 0.002972
0.696427 0.00292
0.696476 0.002869
0.696524 0.002819
0.696573 0.002769
0.696621 0.00272
0.69667 0.002672
0.696718 0.002625
0.696767 0.002578
0.696816 0.002532
0.696864 0.002487
0.696913 0.002443
0.696961 0.002399
0.69701 0.002357
0.697058 0.002318
0.697107 0.002282
0.697156 0.002247
0.697204 0.002212
0.697253 0.002177
0.697301 0.002143
0.69735 0.00211
0.697399 0.002077
0.697447 0.002044
0.697496 0.002012
# -------------------
# GOES17_ABI Band CH086
# -------------------
0.829944 0.002042
0.830013 0.002086
0.830082 0.00213
0.830151 0.002176
0.83022 0.002224
0.830289 0.002274
0.830358 0.002327
0.830427 0.002381
0.830496 0.002438
0.830565 0.002496
0.830634 0.002555
0.830703 0.002616
0.830772 0.002679
0.830841 0.002743
0.83091 0.002807
0.830979 0.002873
0.831048 0.002941
0.831117 0.003011
0.831186 0.003083
0.831255 0.003158
0.831324 0.003236
0.831393 0.003316
0.831463 0.003397
0.831532 0.00348
0.831601 0.003565
0.83167 0.003652
0.831739 0.003741
0.831808 0.003831
0.831878 0.003923
0.831947 0.004017
0.832016 0.004113
0.832085 0.004213
0.832154 0.004316
0.832224 0.004423
0.832293 0.004535
0.832362 0.004651
0.832432 0.004769
0.832501 0.004891
0.83257 0.005016
0.832639 0.005143
0.832709 0.005274
0.832778 0.005407
0.832848 0.005544
0.832917 0.005683
0.832986 0.005826
0.833056 0.005973
0.833125 0.006126
0.833194 0.006287
0.833264 0.006456
0.833333 0.006633
0.833403 0.006815
0.833472 0.007003
0.833542 0.007197
0.833611 0.007395
0.833681 0.007599
0.83375 0.007807
0.83382 0.00802
0.833889 0.008238
0.833959 0.00846
0.834028 0.008687
0.834098 0.008924
0.834168 0.009172
0.834237 0.009433
0.834307 0.009706
0.834376 0.009987
0.834446 0.010277
0.834516 0.010574
0.834585 0.010878
0.834655 0.01119
0.834725 0.01151
0.834794 0.011837
0.834864 0.012171
0.834934 0.012512
0.835003 0.012859
0.835073 0.013219
0.835143 0.013596
0.835213 0.01399
0.835282 0.014403
0.835352 0.014832
0.835422 0.015274
0.835492 0.015728
0.835561 0.016195
0.835631 0.016674
0.835701 0.017164
0.835771 0.017667
0.835841 0.018181
0.835911 0.018707
0.835981 0.019243
0.83605 0.019794
0.83612 0.020368
0.83619 0.020965
0.83626 0.021587
0.83633 0.022235
0.8364 0.022905
0.83647 0.023595
0.83654 0.024305
0.83661 0.025034
0.83668 0.025783
0.83675 0.026552
0.83682 0.027341
0.83689 0.028149
0.83696 0.028977
0.83703 0.029825
0.8371 0.030706
0.83717 0.031621
0.83724 0.032573
0.837311 0.033562
0.837381 0.034588
0.837451 0.035653
0.837521 0.036753
0.837591 0.037888
0.837661 0.039058
0.837731 0.040263
0.837802 0.041503
0.837872 0.042777
0.837942 0.044085
0.838012 0.045426
0.838082 0.04681
0.838153 0.048243
0.838223 0.04973
0.838293 0.051278
0.838364 0.052891
0.838434 0.054574
0.838504 0.056344
0.838574 0.058207
0.838645 0.060153
0.838715 0.062169
0.838785 0.064243
0.838856 0.066364
0.838926 0.068519
0.838997 0.070697
0.839067 0.072921
0.839137 0.075221
0.839208 0.07758
0.839278 0.079983
0.839349 0.082413
0.839419 0.084854
0.83949 0.087289
0.83956 0.089718
0.839631 0.092155
0.839701 0.094606
0.839772 0.097076
0.839842 0.099571
0.839913 0.102097
0.839983 0.104659
0.840054 0.107258
0.840124 0.109887
0.840195 0.112545
0.840266 0.115228
0.840336 0.117936
0.840407 0.120665
0.840477 0.123415
0.840548 0.126182
0.840619 0.128966
0.840689 0.131764
0.84076 0.134573
0.840831 0.137395
0.840901 0.140253
0.840972 0.143161
0.841043 0.146118
0.841114 0.149087
0.841184 0.152066
0.841255 0.155059
0.841326 0.158066
0.841397 0.161092
0.841468 0.164139
0.841538 0.167209
0.841609 0.170305
0.84168 0.173429
0.841751 0.176585
0.841822 0.179774
0.841893 0.183
0.841963 0.18626500000000001
0.842034 0.189574
0.842105 0.192939
0.842176 0.196365
0.842247 0.199852
0.842318 0.203402
0.842389 0.207015
0.84246 0.210693
0.842531 0.214432
0.842602 0.218231
0.842673 0.222089
0.842744 0.226006
0.842815 0.229983
0.842886 0.23402
0.842957 0.238116
0.843028 0.242273
0.843099 0.246495
0.84317 0.25078
0.843241 0.255122
0.843313 0.259518
0.843384 0.263962
0.843455 0.268449
0.843526 0.272974
0.843597 0.277533
0.843668 0.282119
0.843739 0.286729
0.843811 0.291357
0.843882 0.295998
0.843953 0.300648
0.844024 0.305309
0.844096 0.310146
0.844167 0.315083
0.844238 0.320071
0.844309 0.325108
0.844381 0.330191
0.844452 0.335316
0.844523 0.340481
0.844595 0.345684
0.844666 0.35092
0.844737 0.356187
0.844809 0.361482
0.84488 0.366803
0.844951 0.372146
0.845023 0.377511
0.845094 0.382924
0.845166 0.388389
0.845237 0.3939
0.845309 0.39945
0.84538 0.405033
0.845451 0.41064
0.845523 0.416267
0.845594 0.421906
0.845666 0.42755
0.845737 0.433199
0.845809 0.438876
0.845881 0.444585
0.845952 0.450325
0.846024 0.456101
0.846095 0.461923
0.846167 0.467789
0.846238 0.473691
0.84631 0.479619
0.846382 0.485565
0.846453 0.491521
0.846525 0.497478
0.846597 0.503426
0.846668 0.509359
0.84674 0.515266
0.846812 0.521139
0.846883 0.52697
0.846955 0.53275
0.847027 0.538471
0.847099 0.544143
0.84717 0.549769
0.847242 0.555346
0.847314 0.560875
0.847386 0.566354
0.847458 0.571788
0.847529 0.577182
0.847601 0.58254
0.847673 0.587866
0.847745 0.593164
0.847817 0.598438
0.847889 0.603692
0.847961 0.608929
0.848033 0.614154
0.848104 0.619366
0.848176 0.624566
0.848248 0.629751
0.84832 0.634922
0.848392 0.640079
0.848464 0.64522
0.848536 0.650345
0.848608 0.655454
0.84868 0.660547
0.848752 0.665621
0.848824 0.670678
0.848896 0.675716
0.848969 0.680735
0.849041 0.685738
0.849113 0.69072
0.849185 0.695623
0.849257 0.700394
0.849329 0.705065
0.849401 0.709664
0.849473 0.714204
0.849545 0.718698
0.849618 0.723156
0.84969 0.727592
0.849762 0.732018
0.849834 0.736446
0.849907 0.740888
0.849979 0.745357
0.850051 0.749841
0.850123 0.754285
0.850196 0.758696
0.850268 0.763086
0.85034 0.767464
0.850412 0.771843
0.850485 0.776234
0.850557 0.780647
0.850629 0.785094
0.850702 0.789585
0.850774 0.794133
0.850847 0.798749
0.850919 0.803442
0.850991 0.808226
0.851064 0.813198
0.851136 0.818548
0.851209 0.824111
0.851281 0.82984
0.851354 0.835706
0.851426 0.841677
0.851499 0.847724
0.851571 0.853816
0.851644 0.859924
0.851716 0.866017
0.851789 0.872064
0.851861 0.878035
0.851934 0.8839
0.852006 0.889629
0.852079 0.895271
0.852152 0.900776
0.852224 0.906046
0.852297 0.911278
0.85237 0.916499
0.852442 0.921684
0.852515 0.926803
0.852588 0.931831
0.85266 0.936739
0.852733 0.941501
0.852806 0.946089
0.852878 0.950475
0.852951 0.954633
0.853024 0.958502
0.853097 0.961701
0.85317 0.96476
0.853242 0.967792
0.853315 0.970773
0.853388 0.973676
0.853461 0.976479
0.853534 0.979155
0.853606 0.981681
0.853679 0.98403
0.853752 0.986179
0.853825 0.988102
0.853898 0.989774
0.853971 0.991116
0.854044 0.992085
0.854117 0.993043
0.85419 0.993997
0.854263 0.994929
0.854336 0.995826
0.854409 0.996669
0.854482 0.997444
0.854555 0.998133
0.854628 0.998722
0.854701 0.999194
0.854774 0.999533
0.854847 0.999749
0.85492 0.99992
0.854993 0.999999
0.855066 0.999994
0.855139 0.999974
0.855213 0.999941
0.855286 0.999894
0.855359 0.999834
0.855432 0.999761
0.855505 0.999674
0.855578 0.999576
0.855652 0.999465
0.855725 0.999282
0.855798 0.998888
0.855871 0.998348
0.855945 0.997743
0.856018 0.997146
0.856091 0.996505
0.856164 0.995795
0.856238 0.99503
0.856311 0.994229
0.856384 0.993407
0.856458 0.99258
0.856531 0.991766
0.856604 0.990962
0.856678 0.990142
0.856751 0.989309
0.856825 0.988469
0.856898 0.987625
0.856971 0.986783
0.857045 0.985947
0.857118 0.985113
0.857192 0.984278
0.857265 0.983439
0.857339 0.982593
0.857412 0.981737
0.857486 0.980847
0.857559 0.979915
0.857633 0.978962
0.857706 0.978009
0.85778 0.977079
0.857854 0.976193
0.857927 0.975373
0.858001 0.974639
0.858074 0.973977
0.858148 0.973367
0.858222 0.97282
0.858295 0.97235
0.858369 0.971937
0.858443 0.971562
0.858516 0.971218
0.85859 0.970895
0.858664 0.970588
0.858738 0.970286
0.858811 0.969983
0.858885 0.969671
0.858959 0.969342
0.859033 0.968993
0.859107 0.968637
0.85918 0.968211
0.859254 0.967697
0.859328 0.967113
0.859402 0.966473
0.859476 0.965794
0.85955 0.965088
0.859623 0.964373
0.859697 0.963663
0.859771 0.962972
0.859845 0.962317
0.859919 0.961711
0.859993 0.961171
0.860067 0.960765
0.860141 0.960412
0.860215 0.960082
0.860289 0.959772
0.860363 0.959477
0.860437 0.959192
0.860511 0.958914
0.860585 0.958637
0.860659 0.958359
0.860733 0.958075
0.860807 0.95778
0.860882 0.95747
0.860956 0.957145
0.86103 0.956804
0.861104 0.956445
0.861178 0.956074
0.861252 0.955694
0.861326 0.95531
0.861401 0.954926
0.861475 0.954548
0.861549 0.954179
0.861623 0.953826
0.861698 0.953492
0.861772 0.953182
0.861846 0.952902
0.86192 0.95264
0.861995 0.952377
0.862069 0.952103
0.862143 0.951819
0.862218 0.951532
0.862292 0.951245
0.862366 0.950963
0.862441 0.950691
0.862515 0.950435
0.862589 0.950198
0.862664 0.949986
0.862738 0.9498
0.862813 0.949629
0.862887 0.94946
0.862962 0.94928
0.863036 0.949083
0.863111 0.94889
0.863185 0.948695
0.86326 0.948488
0.863334 0.948259
0.863409 0.947995
0.863483 0.947687
0.863558 0.947278
0.863632 0.946716
0.863707 0.946045
0.863782 0.94531
0.863856 0.944556
0.863931 0.943828
0.864006 0.943171
0.86408 0.942542
0.864155 0.941909
0.86423 0.941302
0.864304 0.940753
0.864379 0.940292
0.864454 0.939884
0.864528 0.939508
0.864603 0.939158
0.864678 0.938831
0.864753 0.938521
0.864827 0.938226
0.864902 0.937939
0.864977 0.937657
0.865052 0.937352
0.865127 0.937027
0.865202 0.936829
0.865276 0.936826
0.865351 0.936864
0.865426 0.936926
0.865501 0.937004
0.865576 0.937092
0.865651 0.937184
0.865726 0.937271
0.865801 0.937349
0.865876 0.937409
0.865951 0.937445
0.866026 0.937375
0.866101 0.936855
0.866176 0.936288
0.866251 0.935647
0.866326 0.934948
0.866401 0.934204
0.866476 0.933431
0.866551 0.932642
0.866626 0.931852
0.866701 0.931077
0.866776 0.93033
0.866852 0.929627
0.866927 0.928981
0.867002 0.928417
0.867077 0.927986
0.867152 0.927597
0.867227 0.92724
0.867303 0.92691
0.867378 0.926598
0.867453 0.926297
0.867528 0.925998
0.867604 0.925694
0.867679 0.925378
0.867754 0.925041
0.86783 0.924679
0.867905 0.9243
0.86798 0.923922
0.868056 0.92355
0.868131 0.923172
0.868206 0.922791
0.868282 0.922411
0.868357 0.922038
0.868432 0.921676
0.868508 0.921328
0.868583 0.920999
0.868659 0.920692
0.868734 0.920396
0.86881 0.920113
0.868885 0.91985
0.868961 0.919615
0.869036 0.919408
0.869112 0.919195
0.869187 0.918984
0.869263 0.918793
0.869338 0.918637
0.869414 0.918535
0.86949 0.918502
0.869565 0.918584
0.869641 0.91877
0.869716 0.919017
0.869792 0.919279
0.869868 0.91951
0.869943 0.919666
0.870019 0.919704
0.870095 0.91965
0.870171 0.919537
0.870246 0.919379
0.870322 0.919193
0.870398 0.918903
0.870474 0.918383
0.870549 0.917676
0.870625 0.916831
0.870701 0.915896
0.870777 0.914919
0.870853 0.913948
0.870928 0.91303
0.871004 0.912213
0.87108 0.911279
0.871156 0.910539
0.871232 0.910468
0.871308 0.910506
0.871384 0.910574
0.87146 0.910665
0.871536 0.910773
0.871612 0.910893
0.871688 0.911019
0.871764 0.911146
0.87184 0.911267
0.871916 0.911378
0.871992 0.911471
0.872068 0.911515
0.872144 0.911508
0.87222 0.911493
0.872296 0.911472
0.872372 0.911444
0.872448 0.91141
0.872524 0.91137
0.8726 0.911325
0.872676 0.911276
0.872753 0.911222
0.872829 0.911164
0.872905 0.911099
0.872981 0.910981
0.873057 0.910849
0.873134 0.910701
0.87321 0.91054
0.873286 0.91037
0.873362 0.910197
0.873439 0.910024
0.873515 0.909856
0.873591 0.909697
0.873668 0.909552
0.873744 0.909426
0.87382 0.909324
0.873897 0.909234
0.873973 0.909133
0.874049 0.909012
0.874126 0.908889
0.874202 0.908758
0.874279 0.908612
0.874355 0.908441
0.874432 0.908235
0.874508 0.907988
0.874585 0.907689
0.874661 0.907148
0.874738 0.90624
0.874814 0.905065
0.874891 0.90372
0.874967 0.902306
0.875044 0.900869
0.87512 0.899246
0.875197 0.897436
0.875274 0.895461
0.87535 0.893347
0.875427 0.891117
0.875503 0.888733
0.87558 0.88613
0.875657 0.883338
0.875733 0.880385
0.87581 0.877302
0.875887 0.874116
0.875964 0.870859
0.87604 0.867527
0.876117 0.863989
0.876194 0.86026
0.876271 0.856386
0.876347 0.852422
0.876424 0.848398
0.876501 0.844301
0.876578 0.840114
0.876655 0.835821
0.876732 0.831406
0.876808 0.826853
0.876885 0.822146
0.876962 0.817268
0.877039 0.812175
0.877116 0.806498
0.877193 0.799855
0.87727 0.792356
0.877347 0.78418
0.877424 0.775505
0.877501 0.76651
0.877578 0.75737
0.877655 0.748266
0.877732 0.739374
0.877809 0.730874
0.877886 0.722943
0.877963 0.715761
0.87804 0.709964
0.878117 0.704701
0.878194 0.699587
0.878272 0.694608
0.878349 0.689752
0.878426 0.685005
0.878503 0.680353
0.87858 0.675784
0.878657 0.671285
0.878735 0.66684
0.878812 0.662439
0.878889 0.658066
0.878966 0.653709
0.879044 0.649377
0.879121 0.645167
0.879198 0.641066
0.879275 0.63705
0.879353 0.633095
0.87943 0.629176
0.879507 0.625267
0.879585 0.621345
0.879662 0.617385
0.87974 0.613361
0.879817 0.609249
0.879894 0.605023
0.879972 0.600609
0.880049 0.596015
0.880127 0.591433
0.880204 0.58685
0.880282 0.582263
0.880359 0.577669
0.880437 0.573067
0.880514 0.568453
0.880592 0.563826
0.880669 0.559183
0.880747 0.554521
0.880824 0.549837
0.880902 0.54513
0.88098 0.540397
0.881057 0.535638
0.881135 0.53086
0.881213 0.526061
0.88129 0.521243
0.881368 0.516404
0.881446 0.511544
0.881523 0.506664
0.881601 0.501762
0.881679 0.496839
0.881756 0.491893
0.881834 0.486926
0.881912 0.481935
0.88199 0.476887
0.882068 0.471688
0.882145 0.466442
0.882223 0.461153
0.882301 0.455826
0.882379 0.450466
0.882457 0.445077
0.882535 0.439663
0.882613 0.434228
0.88269 0.428776
0.882768 0.423312
0.882846 0.41784
0.882924 0.412364
0.883002 0.406889
0.88308 0.401401
0.883158 0.395889
0.883236 0.390355
0.883314 0.384804
0.883392 0.379239
0.88347 0.373663
0.883548 0.368081
0.883626 0.362495
0.883704 0.356898
0.883783 0.351278
0.883861 0.34565
0.883939 0.340028
0.884017 0.334426
0.884095 0.328807
0.884173 0.323157
0.884251 0.317489
0.88433 0.311814
0.884408 0.306143
0.884486 0.300487
0.884564 0.294858
0.884643 0.289266
0.884721 0.283723
0.884799 0.27824
0.884877 0.272828
0.884956 0.267498
0.885034 0.262286
0.885112 0.257296
0.885191 0.252351
0.885269 0.24741
0.885347 0.242481
0.885426 0.237577
0.885504 0.232708
0.885583 0.227885
0.885661 0.223118
0.88574 0.218418
0.885818 0.213796
0.885897 0.209263
0.885975 0.204829
0.886054 0.200495
0.886132 0.19624
0.886211 0.192066
0.886289 0.187978
0.886368 0.183983
0.886446 0.180086
0.886525 0.176291
0.886603 0.172603
0.886682 0.169017
0.886761 0.165529
0.886839 0.162136
0.886918 0.158834
0.886997 0.155619
0.887075 0.152478
0.887154 0.149393
0.887233 0.14636
0.887311 0.143376
0.88739 0.140437
0.887469 0.137538
0.887548 0.134676
0.887626 0.131848
0.887705 0.129048
0.887784 0.126274
0.887863 0.123521
0.887942 0.120786
0.888021 0.118087
0.888099 0.115567
0.888178 0.113081
0.888257 0.110629
0.888336 0.108206
0.888415 0.10581
0.888494 0.103439
0.888573 0.10109
0.888652 0.09876
0.888731 0.096447
0.88881 0.094149
0.888889 0.091861
0.888968 0.089583
0.889047 0.08732
0.889126 0.085102
0.889205 0.082915
0.889284 0.080737
0.889363 0.078551
0.889442 0.076333
0.889521 0.074069
0.889601 0.071774
0.88968 0.069471
0.889759 0.067183
0.889838 0.06493
0.889917 0.062736
0.889996 0.060622
0.890076 0.058567
0.890155 0.056544
0.890234 0.054579
0.890313 0.052699
0.890393 0.050932
0.890472 0.049283
0.890551 0.047711
0.890631 0.046203
0.89071 0.044753
0.890789 0.043353
0.890869 0.041995
0.890948 0.040672
0.891027 0.039379
0.891107 0.038134
0.891186 0.036937
0.891266 0.035774
0.891345 0.034635
0.891424 0.033508
0.891504 0.032373
0.891583 0.031233
0.891663 0.030103
0.891742 0.028998
0.891822 0.027933
0.891902 0.026926
0.891981 0.02599
0.892061 0.025116
0.89214 0.024265
0.89222 0.02346
0.892299 0.022727
0.892379 0.022094
0.892459 0.021578
0.892538 0.021133
0.892618 0.020735
0.892698 0.020375
0.892777 0.020039
0.892857 0.019715
0.892937 0.019392
0.893017 0.019057
0.893096 0.018735
0.893176 0.018429
0.893256 0.018126
0.893336 0.017812
0.893416 0.017474
0.893495 0.017105
0.893575 0.016709
0.893655 0.016294
0.893735 0.015867
0.893815 0.015434
0.893895 0.015002
0.893975 0.014578
0.894055 0.014163
0.894134 0.013746
0.894214 0.01333
0.894294 0.012918
0.894374 0.012515
0.894454 0.012124
0.894534 0.011742
0.894614 0.011365
0.894694 0.010995
0.894775 0.010631
0.894855 0.010273
0.894935 0.009922
0.895015 0.009577
0.895095 0.009241
0.895175 0.008914
0.895255 0.008593
0.895335 0.008274
0.895415 0.007957
0.895496 0.007632
0.895576 0.007296
0.895656 0.006957
0.895736 0.006623
0.895817 0.006304
0.895897 0.006008
0.895977 0.005743
0.896057 0.005508
0.896138 0.005277
0.896218 0.005062
0.896298 0.004876
0.896379 0.004733
0.896459 0.004641
0.896539 0.00457
0.89662 0.004509
0.8967 0.004458
0.896781 0.004413
0.896861 0.004372
0.896941 0.004333
0.897022 0.004295
0.897102 0.004259
0.897183 0.004225
0.897263 0.004194
0.897344 0.004166
0.897424 0.00414
0.897505 0.004117
0.897585 0.004096
0.897666 0.004077
0.897747 0.004058
0.897827 0.00404
0.897908 0.00402
0.897989 0.003999
0.898069 0.003977
0.89815 0.003957
0.89823 0.003935
0.898311 0.003908
0.898392 0.003873
0.898473 0.003814
0.898553 0.003706
0.898634 0.003561
0.898715 0.003393
0.898796 0.003214
0.898876 0.003038
0.898957 0.002878
0.899038 0.002739
0.899119 0.002591
0.8992 0.002443
0.899281 0.002316
0.899361 0.002228
0.899442 0.00219
0.899523 0.002167
0.899604 0.002149
0.899685 0.002134
0.899766 0.002122
0.899847 0.00211
0.899928 0.002098
0.900009 0.002083
0.90009 0.002068
0.900171 0.002054
0.900252 0.002039
0.900333 0.002021
# -------------------
# GOES17_ABI Band CH138
# -------------------
1.358511 0.00215
1.358696 0.002455
1.35888 0.002796
1.359065 0.003186
1.35925 0.003684
1.359434 0.004239
1.359619 0.004845
1.359804 0.005582
1.359989 0.006437
1.360174 0.007422
1.360359 0.008566
1.360544 0.009919
1.360729 0.011588
1.360915 0.013455
1.3611 0.015511
1.361285 0.018251
1.36147 0.021697
1.361656 0.025494
1.361841 0.029815
1.362027 0.034831
1.362212 0.041143
1.362398 0.0485
1.362583 0.056869
1.362769 0.066667
1.362955 0.07811
1.363141 0.091889
1.363327 0.109384
1.363512 0.132802
1.363698 0.158386
1.363884 0.185905
1.36407 0.214962
1.364256 0.248065
1.364443 0.285762
1.364629 0.325657
1.364815 0.367868
1.365001 0.41281
1.365188 0.469452
1.365374 0.531615
1.365561 0.58699
1.365747 0.635148
1.365934 0.676935
1.36612 0.717453
1.366307 0.754995
1.366494 0.790153
1.36668 0.803153
1.366867 0.811342
1.367054 0.844988
1.367241 0.872467
1.367428 0.884451
1.367615 0.894604
1.367802 0.903674
1.367989 0.912468
1.368176 0.917847
1.368363 0.9216530000000001
1.368551 0.926148
1.368738 0.925406
1.368925 0.915674
1.369113 0.92618
1.3693 0.948245
1.369488 0.966673
1.369675 0.968359
1.369863 0.965153
1.370051 0.958691
1.370238 0.95893
1.370426 0.974168
1.370614 0.982393
1.370802 0.985425
1.37099 0.985517
1.371178 0.982557
1.371366 0.976984
1.371554 0.986815
1.371742 0.995535
1.37193 0.999899
1.372119 0.999039
1.372307 0.997182
1.372495 0.996012
1.372684 0.997031
1.372872 0.998857
1.373061 0.996687
1.373249 0.994203
1.373438 0.99255
1.373626 0.990284
1.373815 0.984788
1.374004 0.970741
1.374193 0.971231
1.374382 0.973579
1.37457 0.971816
1.374759 0.969428
1.374948 0.966208
1.375138 0.958488
1.375327 0.952874
1.375516 0.950721
1.375705 0.94562
1.375894 0.937585
1.376084 0.927711
1.376273 0.921025
1.376462 0.916277
1.376652 0.911409
1.376842 0.903646
1.377031 0.891416
1.377221 0.880182
1.37741 0.867226
1.3776 0.849871
1.37779 0.82835
1.37798 0.802709
1.37817 0.772167
1.37836 0.735158
1.37855 0.691104
1.37874 0.642596
1.37893 0.587427
1.37912 0.526901
1.37931 0.473014
1.379501 0.420876
1.379691 0.366616
1.379881 0.312909
1.380072 0.262644
1.380262 0.219017
1.380453 0.181594
1.380643 0.14979
1.380834 0.123392
1.381025 0.101123
1.381215 0.082669
1.381406 0.067858
1.381597 0.055705
1.381788 0.045708
1.381979 0.03719
1.38217 0.030289
1.382361 0.024892
1.382552 0.02082
1.382743 0.017607
1.382935 0.014531
1.383126 0.01203
1.383317 0.010053
1.383509 0.008569
1.3837 0.007317
1.383892 0.006171
1.384083 0.005232
1.384275 0.004462
1.384466 0.003843
1.384658 0.003309
1.38485 0.002843
1.385042 0.002456
1.385233 0.002135
# -------------------
# GOES17_ABI Band CH161
# -------------------
1.5625 0.002088
1.562744 0.002269
1.562988 0.002493
1.563233 0.002753
1.563477 0.003055
1.563722 0.003423
1.563966 0.003858
1.564211 0.004305
1.564456 0.004745
1.5647 0.005087
1.564945 0.005365
1.56519 0.005629
1.565435 0.005874
1.56568 0.006085
1.565925 0.006273
1.566171 0.00648
1.566416 0.006719
1.566661 0.007163
1.566907 0.007957
1.567152 0.008855
1.567398 0.00988
1.567644 0.010763
1.56789 0.011545
1.568135 0.012365
1.568381 0.013216
1.568627 0.014147
1.568874 0.01519
1.56912 0.016321
1.569366 0.017538
1.569612 0.018837
1.569859 0.020231
1.570105 0.021761
1.570352 0.023414
1.570598 0.025202
1.570845 0.027178
1.571092 0.029401
1.571339 0.031837
1.571586 0.034448
1.571833 0.037228
1.57208 0.040334
1.572327 0.04373
1.572574 0.047384
1.572822 0.05132
1.573069 0.055817
1.573317 0.060743
1.573564 0.066075
1.573812 0.07191
1.574059 0.078782
1.574307 0.086482
1.574555 0.094383
1.574803 0.101596
1.575051 0.107351
1.575299 0.11236
1.575548 0.117062
1.575796 0.121639
1.576044 0.126264
1.576293 0.130795
1.576541 0.135256
1.57679 0.139844
1.577038 0.144767
1.577287 0.150316
1.577536 0.156133
1.577785 0.162161
1.578034 0.168385
1.578283 0.174821
1.578532 0.18146
1.578781 0.188274
1.57903 0.195234
1.57928 0.202398
1.579529 0.209792
1.579779 0.217399
1.580028 0.225351
1.580278 0.233685
1.580528 0.242282
1.580778 0.251065
1.581028 0.259959
1.581278 0.269014
1.581528 0.278239
1.581778 0.287558
1.582028 0.296896
1.582278 0.306364
1.582529 0.315907
1.582779 0.325555
1.58303 0.335347
1.583281 0.34529
1.583531 0.355368
1.583782 0.365564
1.584033 0.375867
1.584284 0.38631
1.584535 0.39696
1.584786 0.407836
1.585037 0.418958
1.585289 0.430342
1.58554 0.441909
1.585791 0.453556
1.586043 0.465182
1.586294 0.47686
1.586546 0.488577
1.586798 0.500225
1.58705 0.511665
1.587302 0.522957
1.587554 0.534225
1.587806 0.54543
1.588058 0.556539
1.58831 0.567548
1.588562 0.578479
1.588815 0.589353
1.589067 0.600191
1.58932 0.611002
1.589572 0.62171
1.589825 0.63224
1.590078 0.642514
1.590331 0.652542
1.590584 0.66243
1.590837 0.672266
1.59109 0.682126
1.591343 0.691929
1.591596 0.701713
1.59185 0.711565
1.592103 0.721613
1.592357 0.731724
1.59261 0.741149
1.592864 0.750355
1.593118 0.759746
1.593372 0.768944
1.593625 0.778336
1.59388 0.788491
1.594134 0.799783
1.594388 0.812406
1.594642 0.82868
1.594896 0.852847
1.595151 0.878565
1.595405 0.902061
1.59566 0.920042
1.595914 0.935368
1.596169 0.94806
1.596424 0.958251
1.596679 0.967248
1.596934 0.974943
1.597189 0.980798
1.597444 0.985983
1.597699 0.990156
1.597955 0.993275
1.59821 0.995543
1.598465 0.996939
1.598721 0.99757
1.598977 0.998048
1.599232 0.998556
1.599488 0.999205
1.599744 0.999799
1.6 0.999968
1.600256 0.99969
1.600512 0.999382
1.600768 0.999238
1.601025 0.999202
1.601281 0.999081
1.601537 0.998923
1.601794 0.998745
1.602051 0.9986
1.602307 0.998467
1.602564 0.997836
1.602821 0.996981
1.603078 0.996461
1.603335 0.996305
1.603592 0.996177
1.603849 0.995907
1.604107 0.995338
1.604364 0.994772
1.604621 0.994396
1.604879 0.99419
1.605136 0.993951
1.605394 0.993615
1.605652 0.993083
1.60591 0.992543
1.606168 0.992222
1.606426 0.992006
1.606684 0.991853
1.606942 0.991792
1.6072 0.99183
1.607459 0.991925
1.607717 0.991808
1.607976 0.990945
1.608234 0.989557
1.608493 0.988049
1.608752 0.986643
1.60901 0.985314
1.609269 0.984019
1.609528 0.98256
1.609788 0.98098
1.610047 0.979203
1.610306 0.977204
1.610565 0.975146
1.610825 0.973057
1.611084 0.971025
1.611344 0.969149
1.611604 0.967418
1.611863 0.965647
1.612123 0.963637
1.612383 0.961495
1.612643 0.959698
1.612903 0.958356
1.613163 0.957103
1.613424 0.955925
1.613684 0.954702
1.613944 0.954059
1.614205 0.954277
1.614466 0.954831
1.614726 0.955443
1.614987 0.956159
1.615248 0.957108
1.615509 0.958483
1.61577 0.960325
1.616031 0.962249
1.616292 0.96412
1.616554 0.966015
1.616815 0.968075
1.617076 0.97018
1.617338 0.971961
1.617599 0.972773
1.617861 0.973278
1.618123 0.973442
1.618385 0.972048
1.618647 0.969511
1.618909 0.966596
1.619171 0.962567
1.619433 0.957446
1.619695 0.950746
1.619958 0.942673
1.62022 0.933043
1.620483 0.921276
1.620746 0.908284
1.621008 0.893962
1.621271 0.877785
1.621534 0.859064
1.621797 0.834653
1.62206 0.812507
1.622323 0.798169
1.622586 0.787494
1.62285 0.778524
1.623113 0.770394
1.623377 0.763304
1.62364 0.756814
1.623904 0.750266
1.624168 0.743193
1.624431 0.735848
1.624695 0.728081
1.624959 0.720109
1.625223 0.71238
1.625488 0.704759
1.625752 0.697177
1.626016 0.689574
1.626281 0.681978
1.626545 0.674395
1.62681 0.666751
1.627075 0.658958
1.627339 0.650905
1.627604 0.642748
1.627869 0.634541
1.628134 0.626333
1.628399 0.618117
1.628664 0.609866
1.62893 0.601547
1.629195 0.593134
1.629461 0.58463
1.629726 0.576074
1.629992 0.567458
1.630258 0.558944
1.630523 0.550492
1.630789 0.541923
1.631055 0.533064
1.631321 0.523959
1.631588 0.514623
1.631854 0.504989
1.63212 0.494961
1.632387 0.483946
1.632653 0.471991
1.63292 0.459506
1.633186 0.446615
1.633453 0.433093
1.63372 0.419472
1.633987 0.406333
1.634254 0.394148
1.634521 0.382268
1.634788 0.37057
1.635056 0.359036
1.635323 0.347697
1.63559 0.336505
1.635858 0.32537
1.636126 0.314228
1.636393 0.303053
1.636661 0.291923
1.636929 0.280969
1.637197 0.270266
1.637465 0.259743
1.637733 0.249414
1.638002 0.239355
1.63827 0.229544
1.638538 0.219791
1.638807 0.210257
1.639076 0.201095
1.639344 0.192243
1.639613 0.183735
1.639882 0.175701
1.640151 0.168419
1.64042 0.161545
1.640689 0.154877
1.640958 0.148252
1.641228 0.141632
1.641497 0.135078
1.641767 0.128439
1.642036 0.121696
1.642306 0.115004
1.642576 0.108306
1.642845 0.101459
1.643115 0.094315
1.643385 0.086284
1.643655 0.07743
1.643926 0.068854
1.644196 0.061677
1.644466 0.055731
1.644737 0.050324
1.645007 0.045265
1.645278 0.040848
1.645549 0.036682
1.64582 0.032785
1.646091 0.029334
1.646362 0.026297
1.646633 0.023467
1.646904 0.020953
1.647175 0.019013
1.647446 0.017302
1.647718 0.015709
1.647989 0.01421
1.648261 0.012856
1.648533 0.011586
1.648805 0.010478
1.649077 0.009596
1.649349 0.008824
1.649621 0.008103
1.649893 0.007393
1.650165 0.006735
1.650437 0.006111
1.65071 0.005575
1.650982 0.005183
1.651255 0.004873
1.651528 0.004593
1.6518 0.004289
1.652073 0.003959
1.652346 0.003625
1.652619 0.003384
1.652893 0.003354
1.653166 0.003365
1.653439 0.003381
1.653713 0.003391
1.653986 0.003237
1.65426 0.002903
1.654533 0.002477
1.654807 0.002192
1.655081 0.002041
1.656452 0.00212
1.656726 0.002195
1.657001 0.002171
1.657275 0.002119
1.65755 0.002027
# -------------------
# GOES17_ABI Band CH225
# -------------------
2.196837 0.002438
2.197319 0.00263
2.197802 0.002694
2.198285 0.002865
2.198769 0.003317
2.199252 0.0037
2.199736 0.003937
2.20022 0.004248
2.200704 0.004696
2.201189 0.005147
2.201673 0.005536
2.202158 0.006063
2.202643 0.007122
2.203128 0.008277
2.203614 0.009185
2.2041 0.010107
2.204586 0.011085
2.205072 0.01219
2.205558 0.013493
2.206045 0.015095
2.206531 0.017485
2.207018 0.020279
2.207506 0.02316
2.207993 0.026341
2.208481 0.030101
2.208968 0.034487
2.209456 0.039669
2.209945 0.045694
2.210433 0.052464
2.210922 0.060046
2.211411 0.069202
2.2119 0.079894
2.212389 0.091975
2.212879 0.105881
2.213369 0.121803
2.213859 0.140031
2.214349 0.160708
2.214839 0.184193
2.21533 0.211184
2.215821 0.241936
2.216312 0.275845
2.216803 0.313523
2.217295 0.353212
2.217787 0.395001
2.218279 0.439808
2.218771 0.48758
2.219263 0.537017
2.219756 0.587538
2.220249 0.636649
2.220742 0.682985
2.221235 0.728324
2.221729 0.772624
2.222222 0.811349
2.222716 0.845818
2.22321 0.874687
2.223705 0.897492
2.224199 0.915811
2.224694 0.930381
2.225189 0.940897
2.225684 0.947848
2.22618 0.952794
2.226676 0.957102
2.227171 0.959088
2.227668 0.96015
2.228164 0.96085
2.228661 0.960225
2.229157 0.959632
2.229654 0.95972
2.230152 0.959502
2.230649 0.959052
2.231147 0.959451
2.231645 0.960679
2.232143 0.962051
2.232641 0.962736
2.23314 0.963816
2.233639 0.965387
2.234138 0.9683
2.234637 0.971757
2.235136 0.974284
2.235636 0.976077
2.236136 0.978154
2.236636 0.98121
2.237136 0.98473
2.237637 0.98949
2.238138 0.992706
2.238639 0.995115
2.23914 0.997418
2.239642 0.998668
2.240143 0.999496
2.240645 0.999932
2.241147 0.999783
2.24165 0.998909
2.242152 0.998641
2.242655 0.998549
2.243158 0.99756
2.243662 0.996339
2.244165 0.995389
2.244669 0.994434
2.245173 0.992723
2.245677 0.990108
2.246181 0.988032
2.246686 0.98658
2.247191 0.985851
2.247696 0.984706
2.248201 0.982956
2.248707 0.9807
2.249213 0.978417
2.249719 0.976129
2.250225 0.97328
2.250731 0.969717
2.251238 0.965791
2.251745 0.962256
2.252252 0.959184
2.25276 0.956754
2.253267 0.954149
2.253775 0.950958
2.254283 0.948972
2.254791 0.947101
2.2553 0.944141
2.255809 0.941627
2.256318 0.939752
2.256827 0.936896
2.257336 0.933198
2.257846 0.928183
2.258356 0.921318
2.258866 0.91256
2.259376 0.900202
2.259887 0.883455
2.260398 0.863095
2.260909 0.838456
2.26142 0.809635
2.261932 0.776682
2.262443 0.739284
2.262955 0.698203
2.263468 0.652071
2.26398 0.602908
2.264493 0.553528
2.265006 0.503339
2.265519 0.451728
2.266032 0.400453
2.266546 0.35259
2.26706 0.307328
2.267574 0.267792
2.268088 0.231822
2.268603 0.199395
2.269117 0.170616
2.269632 0.145433
2.270148 0.123401
2.270663 0.104897
2.271179 0.089074
2.271695 0.075967
2.272211 0.064595
2.272727 0.054662
2.273244 0.046594
2.273761 0.039993
2.274278 0.034334
2.274795 0.029406
2.275313 0.025331
2.275831 0.021978
2.276349 0.019102
2.276867 0.016572
2.277386 0.014467
2.277904 0.012653
2.278423 0.011142
2.278943 0.009857
2.279462 0.008743
2.279982 0.007744
2.280502 0.006641
2.281022 0.005627
2.281542 0.005093
2.282063 0.004648
2.282584 0.004211
2.283105 0.003797
2.283626 0.003422
2.284148 0.002993
2.28467 0.002324
# -------------------
