# GOES18_ABI RSR
# QV 2025-06-04 from ABI-16-046_FM3_Spectral_Response_Curves.xlsx
# filtered to response > 0.002
# VSWIR bands
# GOES18_ABI Band CH047
# -------------------
0.442791 0.002026
0.442811 0.002064
0.442831 0.002104
0.44285 0.002145
0.44287 0.002188
0.442889 0.002231
0.442909 0.002276
0.442929 0.002321
0.442948 0.002368
0.442968 0.002417
0.442988 0.002466
0.443007 0.002516
0.443027 0.002568
0.443046 0.002621
0.443066 0.002675
0.443086 0.00273
0.443105 0.002787
0.443125 0.002844
0.443145 0.002903
0.443164 0.002963
0.443184 0.003024
0.443203 0.003086
0.443223 0.00315
0.443243 0.003214
0.443262 0.00328
0.443282 0.003346
0.443302 0.003414
0.443321 0.003483
0.443341 0.003553
0.443361 0.003624
0.44338 0.003696
0.4434 0.003769
0.44342 0.003843
0.443439 0.003918
0.443459 0.003994
0.443479 0.004071
0.443498 0.004149
0.443518 0.004228
0.443538 0.004308
0.443557 0.004389
0.443577 0.004471
0.443597 0.004553
0.443616 0.004637
0.443636 0.004722
0.443656 0.004807
0.443675 0.004894
0.443695 0.004981
0.443715 0.00507
0.443734 0.005161
0.443754 0.005254
0.443774 0.00535
0.443794 0.005448
0.443813 0.005549
0.443833 0.005653
0.443853 0.00576
0.443872 0.005869
0.443892 0.005982
0.443912 0.006098
0.443931 0.006217
0.443951 0.00634
0.443971 0.006466
0.443991 0.006595
0.44401 0.006728
0.44403 0.006863
0.44405 0.007001
0.444069 0.007142
0.444089 0.007285
0.444109 0.007431
0.444129 0.007579
0.444148 0.00773
0.444168 0.007884
0.444188 0.008041
0.444208 0.0082
0.444227 0.008362
0.444247 0.008527
0.444267 0.008694
0.444286 0.008865
0.444306 0.009038
0.444326 0.009214
0.444346 0.009393
0.444365 0.009576
0.444385 0.009761
0.444405 0.009949
0.444425 0.01014
0.444444 0.010334
0.444464 0.010531
0.444484 0.010731
0.444504 0.010934
0.444523 0.011141
0.444543 0.01135
0.444563 0.011563
0.444583 0.011779
0.444603 0.011998
0.444622 0.012221
0.444642 0.012447
0.444662 0.012676
0.444682 0.012908
0.444701 0.013144
0.444721 0.013383
0.444741 0.013626
0.444761 0.013872
0.444781 0.014121
0.4448 0.014374
0.44482 0.014636
0.44484 0.014913
0.44486 0.015204
0.444879 0.015509
0.444899 0.01583
0.444919 0.016164
0.444939 0.016513
0.444959 0.016877
0.444978 0.017255
0.444998 0.017647
0.445018 0.018054
0.445038 0.018474
0.445058 0.018907
0.445077 0.019353
0.445097 0.019811
0.445117 0.020281
0.445137 0.020763
0.445157 0.021257
0.445177 0.021763
0.445196 0.022279
0.445216 0.022806
0.445236 0.023344
0.445256 0.023891
0.445276 0.024449
0.445295 0.025016
0.445315 0.025593
0.445335 0.026178
0.445355 0.026773
0.445375 0.027375
0.445395 0.027986
0.445414 0.028605
0.445434 0.029232
0.445454 0.029865
0.445474 0.030506
0.445494 0.031154
0.445514 0.031808
0.445534 0.032468
0.445553 0.033134
0.445573 0.033805
0.445593 0.034482
0.445613 0.035163
0.445633 0.03585
0.445653 0.036541
0.445673 0.037236
0.445692 0.037934
0.445712 0.038637
0.445732 0.039342
0.445752 0.040051
0.445772 0.040762
0.445792 0.041475
0.445812 0.042191
0.445831 0.042908
0.445851 0.043627
0.445871 0.044347
0.445891 0.045068
0.445911 0.045793
0.445931 0.046543
0.445951 0.047326
0.445971 0.048146
0.445991 0.04901
0.44601 0.049917
0.44603 0.050842
0.44605 0.051779
0.44607 0.052729
0.44609 0.053692
0.44611 0.054668
0.44613 0.055656
0.44615 0.056656
0.44617 0.057669
0.44619 0.058694
0.446209 0.05973
0.446229 0.060779
0.446249 0.061839
0.446269 0.062911
0.446289 0.063994
0.446309 0.065088
0.446329 0.066193
0.446349 0.06731
0.446369 0.068437
0.446389 0.069575
0.446409 0.070723
0.446429 0.071882
0.446449 0.073052
0.446468 0.074231
0.446488 0.075421
0.446508 0.07662
0.446528 0.077829
0.446548 0.079048
0.446568 0.080276
0.446588 0.081514
0.446608 0.082761
0.446628 0.084017
0.446648 0.085282
0.446668 0.086555
0.446688 0.087838
0.446708 0.089128
0.446728 0.090428
0.446748 0.091735
0.446768 0.093051
0.446788 0.094375
0.446808 0.095706
0.446828 0.097045
0.446847 0.098392
0.446867 0.099746
0.446887 0.101108
0.446907 0.102476
0.446927 0.103852
0.446947 0.105235
0.446967 0.106624
0.446987 0.10802
0.447007 0.109423
0.447027 0.110839
0.447047 0.112271
0.447067 0.113719
0.447087 0.115182
0.447107 0.116661
0.447127 0.118157
0.447147 0.119669
0.447167 0.121197
0.447187 0.122742
0.447207 0.124304
0.447227 0.125883
0.447247 0.12748
0.447267 0.129094
0.447287 0.130726
0.447307 0.132375
0.447327 0.134043
0.447347 0.135729
0.447367 0.137433
0.447387 0.139156
0.447407 0.140898
0.447427 0.142659
0.447447 0.14444
0.447467 0.146239
0.447487 0.148059
0.447507 0.149898
0.447527 0.151757
0.447547 0.153636
0.447567 0.155536
0.447588 0.157457
0.447608 0.159399
0.447628 0.16138
0.447648 0.163401
0.447668 0.165463
0.447688 0.167562
0.447708 0.169699
0.447728 0.171872
0.447748 0.174079
0.447768 0.176319
0.447788 0.178592
0.447808 0.180895
0.447828 0.183228
0.447848 0.185589
0.447868 0.187978
0.447888 0.190391
0.447908 0.19283
0.447928 0.195291
0.447948 0.197774
0.447968 0.200278
0.447989 0.202801
0.448009 0.205345
0.448029 0.207931
0.448049 0.210563
0.448069 0.213238
0.448089 0.215956
0.448109 0.218713
0.448129 0.221509
0.448149 0.224341
0.448169 0.227208
0.448189 0.230108
0.448209 0.233039
0.448229 0.235999
0.44825 0.238987
0.44827 0.242
0.44829 0.245037
0.44831 0.248097
0.44833 0.251176
0.44835 0.254274
0.44837 0.257389
0.44839 0.260519
0.44841 0.263661
0.44843 0.266815
0.448451 0.269979
0.448471 0.273149
0.448491 0.276326
0.448511 0.279506
0.448531 0.282689
0.448551 0.285872
0.448571 0.289053
0.448591 0.292231
0.448612 0.295404
0.448632 0.29857
0.448652 0.301727
0.448672 0.304874
0.448692 0.308008
0.448712 0.311128
0.448732 0.314231
0.448752 0.317317
0.448773 0.320383
0.448793 0.323427
0.448813 0.326448
0.448833 0.329444
0.448853 0.332412
0.448873 0.335352
0.448893 0.338261
0.448914 0.341137
0.448934 0.343979
0.448954 0.346784
0.448974 0.349551
0.448994 0.352279
0.449014 0.354967
0.449035 0.357623
0.449055 0.36025
0.449075 0.362849
0.449095 0.365421
0.449115 0.36797
0.449135 0.370496
0.449156 0.373002
0.449176 0.375489
0.449196 0.377959
0.449216 0.380414
0.449236 0.382857
0.449256 0.385288
0.449277 0.387709
0.449297 0.390124
0.449317 0.392535
0.449337 0.39495
0.449357 0.397366
0.449378 0.399784
0.449398 0.402203
0.449418 0.40462
0.449438 0.407036
0.449458 0.409449
0.449479 0.411858
0.449499 0.414263
0.449519 0.416662
0.449539 0.419054
0.449559 0.421439
0.44958 0.423815
0.4496 0.426182
0.44962 0.428538
0.44964 0.430883
0.449661 0.433215
0.449681 0.435534
0.449701 0.437838
0.449721 0.440127
0.449741 0.442399
0.449762 0.444654
0.449782 0.446891
0.449802 0.449108
0.449822 0.451305
0.449843 0.453481
0.449863 0.455634
0.449883 0.457764
0.449903 0.45987
0.449924 0.46195
0.449944 0.464004
0.449964 0.466031
0.449984 0.46803
0.450005 0.47
0.450025 0.471967
0.450045 0.473941
0.450065 0.47592
0.450086 0.477905
0.450106 0.479893
0.450126 0.481883
0.450146 0.483874
0.450167 0.485866
0.450187 0.487856
0.450207 0.489844
0.450227 0.491828
0.450248 0.493808
0.450268 0.495781
0.450288 0.497748
0.450308 0.499707
0.450329 0.501656
0.450349 0.503594
0.450369 0.505521
0.45039 0.507435
0.45041 0.509335
0.45043 0.51122
0.45045 0.513088
0.450471 0.514938
0.450491 0.51677
0.450511 0.518581
0.450532 0.520371
0.450552 0.522139
0.450572 0.523884
0.450593 0.525604
0.450613 0.527297
0.450633 0.528964
0.450653 0.530602
0.450674 0.532211
0.450694 0.533789
0.450714 0.535336
0.450735 0.536849
0.450755 0.538328
0.450775 0.539771
0.450796 0.541178
0.450816 0.542548
0.450836 0.543878
0.450857 0.545168
0.45087700000000003 0.546416
0.450897 0.547622
0.450918 0.548784
0.450938 0.549901
0.450958 0.550972
0.450979 0.551996
0.450999 0.552971
0.451019 0.553873
0.45104 0.554687
0.45106 0.555427
0.45108 0.556113
0.451101 0.556761
0.451121 0.557391
0.451141 0.55801
0.451162 0.558617
0.451182 0.559214
0.451202 0.559801
0.451223 0.560378
0.451243 0.560945
0.451264 0.561503
0.451284 0.562053
0.451304 0.562594
0.451325 0.563127
0.451345 0.563653
0.451365 0.564171
0.451386 0.564683
0.451406 0.565188
0.451427 0.565687
0.451447 0.56618
0.451467 0.566668
0.451488 0.567151
0.451508 0.56763
0.451528 0.568104
0.451549 0.568575
0.451569 0.569042
0.45159 0.569506
0.45161 0.569967
0.45163 0.570426
0.451651 0.570883
0.451671 0.571338
0.451692 0.571792
0.451712 0.572246
0.451732 0.572699
0.451753 0.573152
0.451773 0.573605
0.451794 0.57406
0.451814 0.574515
0.451834 0.574971
0.451855 0.57543
0.451875 0.575891
0.451896 0.576354
0.451916 0.576821
0.451937 0.577291
0.451957 0.577764
0.451977 0.578242
0.451998 0.578724
0.452018 0.579208
0.452039 0.579687
0.452059 0.580163
0.45208 0.580635
0.4521 0.581103
0.45212 0.581569
0.452141 0.582032
0.452161 0.582492
0.452182 0.582949
0.452202 0.583405
0.452223 0.583859
0.452243 0.584311
0.452264 0.584762
0.452284 0.585212
0.452304 0.585661
0.452325 0.58611
0.452345 0.586558
0.452366 0.587007
0.452386 0.587455
0.452407 0.587904
0.452427 0.588354
0.452448 0.588805
0.452468 0.589256
0.452489 0.58971
0.452509 0.590165
0.45253 0.590622
0.45255 0.591082
0.452571 0.591544
0.452591 0.592009
0.452612 0.592476
0.452632 0.592948
0.452653 0.593422
0.452673 0.593901
0.452694 0.594383
0.452714 0.59487
0.452735 0.595362
0.452755 0.595858
0.452776 0.59636
0.452796 0.596866
0.452817 0.597379
0.452837 0.597897
0.452858 0.598422
0.452878 0.598953
0.452899 0.59949
0.452919 0.600041
0.45294 0.600615
0.45296 0.601208
0.452981 0.601818
0.453001 0.602444
0.453022 0.603077
0.453042 0.603711
0.453063 0.604347
0.453083 0.604984
0.453104 0.605623
0.453124 0.606264
0.453145 0.606907
0.453165 0.607552
0.453186 0.6082
0.453206 0.60885
0.453227 0.609503
0.453248 0.610158
0.453268 0.610817
0.453289 0.611479
0.453309 0.612144
0.45333 0.612812
0.45335 0.613485
0.453371 0.614161
0.453391 0.614841
0.453412 0.615525
0.453432 0.616213
0.453453 0.616906
0.453474 0.617603
0.453494 0.618305
0.453515 0.619012
0.453535 0.619724
0.453556 0.620441
0.453576 0.621163
0.453597 0.621891
0.453618 0.622625
0.453638 0.623364
0.453659 0.62411
0.453679 0.624861
0.4537 0.625619
0.453721 0.626383
0.453741 0.627154
0.453762 0.627932
0.453782 0.628717
0.453803 0.629508
0.453823 0.630307
0.453844 0.631114
0.453865 0.631928
0.453885 0.632749
0.453906 0.633579
0.453926 0.634416
0.453947 0.635262
0.453968 0.636116
0.453988 0.636979
0.454009 0.637851
0.45403 0.638743
0.45405 0.639679
0.454071 0.640683
0.454091 0.641778
0.454112 0.642976
0.454133 0.64425
0.454153 0.64559
0.454174 0.646996
0.454194 0.648463
0.454215 0.649989
0.454236 0.651572
0.454256 0.653209
0.454277 0.654896
0.454298 0.656632
0.454318 0.658412
0.454339 0.660236
0.45436 0.662099
0.45438 0.664
0.454401 0.665935
0.454422 0.667901
0.454442 0.669897
0.454463 0.671918
0.454483 0.673963
0.454504 0.676028
0.454525 0.678111
0.454545 0.680209
0.454566 0.682319
0.454587 0.684438
0.454607 0.686564
0.454628 0.688694
0.454649 0.690826
0.454669 0.692955
0.45469 0.69508
0.454711 0.697198
0.454731 0.699305
0.454752 0.7014
0.454773 0.703479
0.454794 0.70554
0.454814 0.70758
0.454835 0.709596
0.454856 0.711584
0.454876 0.713544
0.454897 0.71547
0.454918 0.717362
0.454938 0.719216
0.454959 0.721029
0.45498 0.722798
0.455 0.724521
0.455021 0.726234
0.455042 0.727973
0.455063 0.729734
0.455083 0.731514
0.455104 0.733313
0.455125 0.735127
0.455145 0.736954
0.455166 0.738791
0.455187 0.740637
0.455208 0.742488
0.455228 0.744344
0.455249 0.7462
0.45527 0.748055
0.45529 0.749907
0.455311 0.751752
0.455332 0.753589
0.455353 0.755416
0.455373 0.757229
0.455394 0.759027
0.455415 0.760808
0.455436 0.762568
0.455456 0.764305
0.455477 0.766018
0.455498 0.767703
0.455519 0.769358
0.455539 0.770982
0.45556 0.772571
0.455581 0.774123
0.455602 0.775635
0.455622 0.777106
0.455643 0.778533
0.455664 0.779914
0.455685 0.781246
0.455705 0.782526
0.455726 0.783753
0.455747 0.784924
0.455768 0.786036
0.455789 0.787088
0.455809 0.788076
0.45583 0.788999
0.455851 0.789854
0.455872 0.790638
0.455892 0.791349
0.455913 0.791977
0.455934 0.792506
0.455955 0.792969
0.455976 0.7934
0.455996 0.793837
0.456017 0.794298
0.456038 0.794771
0.456059 0.795255
0.45608 0.795746
0.4561 0.796246
0.456121 0.796753
0.456142 0.797265
0.456163 0.797781
0.456184 0.798302
0.456204 0.798824
0.456225 0.799348
0.456246 0.799872
0.456267 0.800396
0.456288 0.800917
0.456308 0.801435
0.456329 0.80195
0.45635 0.802459
0.456371 0.802962
0.456392 0.803457
0.456413 0.803945
0.456433 0.804422
0.456454 0.804889
0.456475 0.805345
0.456496 0.805787
0.456517 0.806216
0.456538 0.80663
0.456558 0.807028
0.456579 0.807409
0.4566 0.807771
0.456621 0.808115
0.456642 0.808438
0.456663 0.808739
0.456684 0.809018
0.456704 0.809273
0.456725 0.809504
0.456746 0.809708
0.456767 0.809886
0.456788 0.810035
0.456809 0.810159
0.45683 0.810276
0.45685 0.81039
0.456871 0.810499
0.456892 0.810599
0.456913 0.810687
0.456934 0.810762
0.456955 0.810819
0.456976 0.810858
0.456997 0.810874
0.457018 0.810857
0.457038 0.810793
0.457059 0.810684
0.45708 0.810531
0.457101 0.810338
0.457122 0.810106
0.457143 0.809837
0.457164 0.809534
0.457185 0.809198
0.457206 0.808832
0.457226 0.808438
0.457247 0.808018
0.457268 0.807575
0.457289 0.80711
0.45731 0.806626
0.457331 0.806124
0.457352 0.805607
0.457373 0.805078
0.457394 0.804538
0.457415 0.803989
0.457436 0.803434
0.457457 0.802875
0.457477 0.802314
0.457498 0.801753
0.457519 0.801195
0.45754 0.800641
0.457561 0.800094
0.457582 0.799556
0.457603 0.799029
0.457624 0.798515
0.457645 0.798017
0.457666 0.797536
0.457687 0.797076
0.457708 0.796634
0.457729 0.796184
0.45775 0.79572
0.457771 0.795246
0.457792 0.794765
0.457813 0.794281
0.457834 0.793797
0.457854 0.793317
0.457875 0.792845
0.457896 0.792384
0.457917 0.791938
0.457938 0.79151
0.457959 0.791103
0.45798 0.790722
0.458001 0.79037
0.458022 0.790027
0.458043 0.789679
0.458064 0.789326
0.458085 0.788971
0.458106 0.788613
0.458127 0.788255
0.458148 0.787898
0.458169 0.787543
0.45819 0.787192
0.458211 0.786846
0.458232 0.786506
0.458253 0.786173
0.458274 0.78585
0.458295 0.785536
0.458316 0.785234
0.458337 0.784945
0.458358 0.78467
0.458379 0.784411
0.4584 0.784169
0.458421 0.783945
0.458442 0.78374
0.458463 0.783556
0.458484 0.783395
0.458505 0.783257
0.458526 0.783143
0.458547 0.783057
0.458568 0.782997
0.458589 0.782967
0.45861 0.78297
0.458631 0.783027
0.458652 0.783136
0.458674 0.783292
0.458695 0.783493
0.458716 0.783732
0.458737 0.784006
0.458758 0.78431
0.458779 0.78464
0.4588 0.784991
0.458821 0.785358
0.458842 0.785738
0.458863 0.786125
0.458884 0.786515
0.458905 0.786904
0.458926 0.787287
0.458947 0.78766
0.458968 0.788018
0.458989 0.788357
0.45901 0.788674
0.459031 0.788983
0.459053 0.789289
0.459074 0.789592
0.459095 0.789892
0.459116 0.790191
0.459137 0.790491
0.459158 0.790791
0.459179 0.791093
0.4592 0.791398
0.459221 0.791707
0.459242 0.792021
0.459263 0.792341
0.459284 0.792668
0.459306 0.793003
0.459327 0.793347
0.459348 0.793701
0.459369 0.794066
0.45939 0.794443
0.459411 0.794833
0.459432 0.795237
0.459453 0.795656
0.459474 0.796091
0.459495 0.796544
0.459517 0.79702
0.459538 0.797532
0.459559 0.798079
0.45958 0.798659
0.459601 0.799269
0.459622 0.799907
0.459643 0.800571
0.459664 0.80126
0.459686 0.80197
0.459707 0.8027
0.459728 0.803448
0.459749 0.804212
0.45977 0.804989
0.459791 0.805777
0.459812 0.806575
0.459834 0.80738
0.459855 0.80819
0.459876 0.809003
0.459897 0.809817
0.459918 0.810629
0.459939 0.811438
0.45996 0.812242
0.459982 0.813037
0.460003 0.813824
0.460024 0.814623
0.460045 0.815446
0.460066 0.81629
0.460087 0.817153
0.460109 0.818029
0.46013 0.818917
0.460151 0.819812
0.460172 0.82071
0.460193 0.82161
0.460214 0.822507
0.460236 0.823397
0.460257 0.824278
0.460278 0.825146
0.460299 0.825997
0.46032 0.826828
0.460342 0.827636
0.460363 0.828417
0.460384 0.829168
0.460405 0.829885
0.460426 0.830583
0.460448 0.831268
0.460469 0.83194
0.46049 0.8326
0.460511 0.83325
0.460532 0.833888
0.460554 0.834517
0.460575 0.835136
0.460596 0.835747
0.460617 0.836349
0.460638 0.836945
0.46066 0.837533
0.460681 0.838116
0.460702 0.838693
0.460723 0.839265
0.460745 0.839834
0.460766 0.840398
0.460787 0.84096
0.460808 0.84152
0.460829 0.842078
0.460851 0.842635
0.460872 0.843192
0.460893 0.84375
0.460914 0.844308
0.460936 0.844868
0.460957 0.845431
0.460978 0.845996
0.460999 0.846565
0.461021 0.847135
0.461042 0.8477
0.461063 0.848261
0.461084 0.848818
0.461106 0.849372
0.461127 0.849923
0.461148 0.850471
0.46117 0.851016
0.461191 0.851559
0.461212 0.8521
0.461233 0.85264
0.461255 0.853179
0.461276 0.853716
0.461297 0.854253
0.461318 0.854789
0.46134 0.855324
0.461361 0.855857
0.461382 0.85639
0.461404 0.856922
0.461425 0.857453
0.461446 0.857982
0.461467 0.858511
0.461489 0.859039
0.46151 0.859566
0.461531 0.860092
0.461553 0.860617
0.461574 0.861141
0.461595 0.861664
0.461617 0.862186
0.461638 0.862707
0.461659 0.863228
0.461681 0.863747
0.461702 0.864266
0.461723 0.864783
0.461744 0.8653
0.461766 0.865816
0.461787 0.866331
0.461808 0.866846
0.46183 0.867359
0.461851 0.867872
0.461872 0.868383
0.461894 0.868894
0.461915 0.869404
0.461936 0.869913
0.461958 0.870422
0.461979 0.87093
0.462 0.871436
0.462022 0.871939
0.462043 0.872435
0.462065 0.872928
0.462086 0.873423
0.462107 0.873923
0.462129 0.874435
0.46215 0.87496
0.462171 0.875499
0.462193 0.876048
0.462214 0.876608
0.462235 0.877177
0.462257 0.877755
0.462278 0.87834
0.462299 0.878931
0.462321 0.879527
0.462342 0.880128
0.462364 0.880732
0.462385 0.881337
0.462406 0.881944
0.462428 0.882551
0.462449 0.883157
0.462471 0.88376
0.462492 0.884361
0.462513 0.884957
0.462535 0.885548
0.462556 0.886133
0.462577 0.886711
0.462599 0.88728
0.46262 0.88784
0.462642 0.888389
0.462663 0.888927
0.462684 0.889452
0.462706 0.889964
0.462727 0.89046
0.462749 0.890942
0.46277 0.891406
0.462792 0.891853
0.462813 0.892281
0.462834 0.892689
0.462856 0.893075
0.462877 0.89344
0.462899 0.893782
0.46292 0.8941
0.462942 0.894392
0.462963 0.894658
0.462984 0.894897
0.463006 0.895109
0.463027 0.895312
0.463049 0.895513
0.46307 0.895712
0.463092 0.895909
0.463113 0.896104
0.463134 0.896297
0.463156 0.896488
0.463177 0.896675
0.463199 0.896861
0.46322 0.897043
0.463242 0.897222
0.463263 0.897398
0.463285 0.89757
0.463306 0.897739
0.463328 0.897905
0.463349 0.898066
0.463371 0.898224
0.463392 0.898377
0.463414 0.898526
0.463435 0.898671
0.463456 0.898811
0.463478 0.898946
0.463499 0.899076
0.463521 0.899202
0.463542 0.899322
0.463564 0.899436
0.463585 0.899546
0.463607 0.899649
0.463628 0.899747
0.46365 0.899838
0.463671 0.899924
0.463693 0.900003
0.463714 0.900076
0.463736 0.900142
0.463757 0.900201
0.463779 0.900254
0.4638 0.900299
0.463822 0.900337
0.463843 0.900368
0.463865 0.900391
0.463886 0.900406
0.463908 0.900414
0.463929 0.90042
0.463951 0.900425
0.463973 0.900429
0.463994 0.900431
0.464016 0.900423
0.464037 0.900387
0.464059 0.900322
0.46408 0.900231
0.464102 0.900115
0.464123 0.899976
0.464145 0.899815
0.464166 0.899635
0.464188 0.899436
0.464209 0.899221
0.464231 0.898992
0.464253 0.898749
0.464274 0.898494
0.464296 0.89823
0.464317 0.897958
0.464339 0.897679
0.46436 0.897396
0.464382 0.897109
0.464403 0.896821
0.464425 0.896533
0.464447 0.896247
0.464468 0.895965
0.46449 0.895688
0.464511 0.895418
0.464533 0.895157
0.464554 0.894905
0.464576 0.894666
0.464598 0.894441
0.464619 0.894231
0.464641 0.894038
0.464662 0.893864
0.464684 0.89371
0.464706 0.893578
0.464727 0.89347
0.464749 0.893388
0.46477 0.893332
0.464792 0.893306
0.464814 0.893309
0.464835 0.893339
0.464857 0.893391
0.464878 0.893461
0.4649 0.893545
0.464922 0.893639
0.464943 0.89374
0.464965 0.893842
0.464987 0.893943
0.465008 0.894037
0.46503 0.894132
0.465051 0.894227
0.465073 0.894323
0.465095 0.894421
0.465116 0.89452
0.465138 0.894621
0.46516 0.894725
0.465181 0.89483
0.465203 0.894939
0.465224 0.89505
0.465246 0.895163
0.465268 0.89528
0.465289 0.895401
0.465311 0.895525
0.465333 0.895653
0.465354 0.895785
0.465376 0.895921
0.465398 0.896062
0.465419 0.896207
0.465441 0.896357
0.465463 0.896513
0.465484 0.896674
0.465506 0.89684
0.465528 0.897012
0.465549 0.89719
0.465571 0.897375
0.465593 0.897566
0.465614 0.897763
0.465636 0.897968
0.465658 0.898179
0.465679 0.898398
0.465701 0.898625
0.465723 0.898881
0.465744 0.899181
0.465766 0.899521
0.465788 0.899897
0.46581 0.900305
0.465831 0.90074
0.465853 0.901197
0.465875 0.901674
0.465896 0.902164
0.465918 0.902665
0.46594 0.903172
0.465962 0.903679
0.465983 0.904185
0.466005 0.904683
0.466027 0.905198
0.466048 0.905736
0.46607 0.906297
0.466092 0.906877
0.466114 0.907474
0.466135 0.908086
0.466157 0.908711
0.466179 0.909346
0.4662 0.909989
0.466222 0.910638
0.466244 0.91129
0.466266 0.911943
0.466287 0.912595
0.466309 0.913243
0.466331 0.913885
0.466353 0.914519
0.466374 0.915142
0.466396 0.915752
0.466418 0.916346
0.46644 0.916923
0.466461 0.91748
0.466483 0.918015
0.466505 0.918525
0.466527 0.919023
0.466548 0.919513
0.46657 0.919997
0.466592 0.920473
0.466614 0.920943
0.466636 0.921406
0.466657 0.921863
0.466679 0.922314
0.466701 0.922758
0.466723 0.923197
0.466744 0.923629
0.466766 0.924057
0.466788 0.924478
0.46681 0.924895
0.466832 0.925306
0.466853 0.925712
0.466875 0.926113
0.466897 0.92651
0.466919 0.926902
0.466941 0.92729
0.466962 0.927674
0.466984 0.928053
0.467006 0.928429
0.467028 0.928801
0.46705 0.929169
0.467071 0.929534
0.467093 0.929894
0.467115 0.93025
0.467137 0.930602
0.467159 0.93095
0.467181 0.931292
0.467202 0.93163
0.467224 0.931963
0.467246 0.932291
0.467268 0.932614
0.46729 0.932931
0.467312 0.933242
0.467333 0.933548
0.467355 0.933847
0.467377 0.934141
0.467399 0.934428
0.467421 0.934709
0.467443 0.934985
0.467464 0.935256
0.467486 0.935522
0.467508 0.935783
0.46753 0.93604
0.467552 0.936293
0.467574 0.936543
0.467596 0.936789
0.467617 0.937032
0.467639 0.937273
0.467661 0.937511
0.467683 0.937746
0.467705 0.93798
0.467727 0.938212
0.467749 0.938443
0.467771 0.938673
0.467792 0.938902
0.467814 0.93913
0.467836 0.939358
0.467858 0.939587
0.46788 0.939815
0.467902 0.940045
0.467924 0.940275
0.467946 0.940507
0.467968 0.94074
0.46799 0.940975
0.468011 0.941212
0.468033 0.941449
0.468055 0.941687
0.468077 0.941925
0.468099 0.942163
0.468121 0.9424
0.468143 0.942636
0.468165 0.942872
0.468187 0.943105
0.468209 0.943337
0.468231 0.943566
0.468252 0.943794
0.468274 0.944018
0.468296 0.944239
0.468318 0.944458
0.46834 0.944674
0.468362 0.944889
0.468384 0.945101
0.468406 0.945311
0.468428 0.94552
0.46845 0.945727
0.468472 0.945933
0.468494 0.946137
0.468516 0.946341
0.468538 0.946543
0.46856 0.946744
0.468582 0.946944
0.468604 0.947144
0.468626 0.947343
0.468647 0.947542
0.468669 0.94774
0.468691 0.947938
0.468713 0.948136
0.468735 0.948335
0.468757 0.948533
0.468779 0.948732
0.468801 0.948931
0.468823 0.949131
0.468845 0.949331
0.468867 0.949532
0.468889 0.949735
0.468911 0.949938
0.468933 0.950143
0.468955 0.950349
0.468977 0.950556
0.468999 0.950765
0.469021 0.950975
0.469043 0.951186
0.469065 0.951397
0.469087 0.951609
0.469109 0.951822
0.469131 0.952037
0.469153 0.952253
0.469175 0.952472
0.469197 0.952692
0.469219 0.952914
0.469241 0.953137
0.469263 0.953361
0.469285 0.953586
0.469307 0.953812
0.469329 0.954039
0.469351 0.954267
0.469373 0.954496
0.469395 0.954725
0.469417 0.954956
0.469439 0.955187
0.469462 0.955418
0.469484 0.955651
0.469506 0.955884
0.469528 0.956118
0.46955 0.956352
0.469572 0.956587
0.469594 0.956823
0.469616 0.957059
0.469638 0.957295
0.46966 0.957532
0.469682 0.957769
0.469704 0.958007
0.469726 0.958245
0.469748 0.958483
0.46977 0.958722
0.469792 0.958961
0.469814 0.9592
0.469836 0.959439
0.469859 0.959678
0.469881 0.959918
0.469903 0.960157
0.469925 0.960397
0.469947 0.960637
0.469969 0.960876
0.469991 0.961116
0.470013 0.961354
0.470035 0.96159
0.470057 0.961828
0.470079 0.962073
0.470102 0.962329
0.470124 0.962597
0.470146 0.962876
0.470168 0.963164
0.47019 0.963461
0.470212 0.963766
0.470234 0.964079
0.470256 0.964399
0.470278 0.964725
0.470301 0.965057
0.470323 0.965394
0.470345 0.965735
0.470367 0.96608
0.470389 0.966428
0.470411 0.966778
0.470433 0.967131
0.470455 0.967484
0.470478 0.967838
0.4705 0.968193
0.470522 0.968546
0.470544 0.968898
0.470566 0.969248
0.470588 0.969596
0.47061 0.96994
0.470633 0.97028
0.470655 0.970616
0.470677 0.970946
0.470699 0.971271
0.470721 0.971589
0.470743 0.9719
0.470765 0.972204
0.470788 0.972499
0.47081 0.972785
0.470832 0.973061
0.470854 0.973327
0.470876 0.973581
0.470898 0.973825
0.470921 0.974056
0.470943 0.974274
0.470965 0.974478
0.470987 0.974668
0.471009 0.974845
0.471032 0.975017
0.471054 0.975188
0.471076 0.975357
0.471098 0.975524
0.47112 0.975689
0.471143 0.975852
0.471165 0.976012
0.471187 0.976171
0.471209 0.976327
0.471231 0.976481
0.471254 0.976632
0.471276 0.976781
0.471298 0.976927
0.47132 0.977071
0.471342 0.977212
0.471365 0.977351
0.471387 0.977487
0.471409 0.97762
0.471431 0.97775
0.471453 0.977877
0.471476 0.978001
0.471498 0.978122
0.47152 0.978239
0.471542 0.978354
0.471565 0.978465
0.471587 0.978573
0.471609 0.978678
0.471631 0.978779
0.471654 0.978877
0.471676 0.978971
0.471698 0.979061
0.47172 0.979148
0.471743 0.979231
0.471765 0.97931
0.471787 0.979385
0.471809 0.979456
0.471832 0.979524
0.471854 0.979587
0.471876 0.979646
0.471898 0.9797
0.471921 0.979754
0.471943 0.979807
0.471965 0.97985
0.471988 0.979876
0.47201 0.979878
0.472032 0.979854
0.472054 0.979804
0.472077 0.979731
0.472099 0.979634
0.472121 0.979514
0.472144 0.979374
0.472166 0.979213
0.472188 0.979032
0.47221 0.978834
0.472233 0.978617
0.472255 0.978384
0.472277 0.978135
0.4723 0.977872
0.472322 0.977595
0.472344 0.977305
0.472367 0.977003
0.472389 0.97669
0.472411 0.976367
0.472434 0.976036
0.472456 0.975696
0.472478 0.975349
0.4725 0.974996
0.472523 0.974637
0.472545 0.974275
0.472567 0.973909
0.47259 0.973541
0.472612 0.973171
0.472634 0.972801
0.472657 0.972432
0.472679 0.972064
0.472701 0.971698
0.472724 0.971336
0.472746 0.970978
0.472769 0.970626
0.472791 0.97028
0.472813 0.969941
0.472836 0.96961
0.472858 0.969288
0.47288 0.968977
0.472903 0.968676
0.472925 0.968372
0.472947 0.968061
0.47297 0.967749
0.472992 0.967441
0.473015 0.967138
0.473037 0.966823
0.473059 0.966496
0.473082 0.966158
0.473104 0.96581
0.473126 0.965454
0.473149 0.965091
0.473171 0.964721
0.473194 0.964347
0.473216 0.963969
0.473238 0.96359
0.473261 0.963209
0.473283 0.962829
0.473306 0.96245
0.473328 0.962075
0.47335 0.961704
0.473373 0.961338
0.473395 0.960979
0.473418 0.960628
0.47344 0.960287
0.473462 0.959956
0.473485 0.959637
0.473507 0.959331
0.47353 0.95904
0.473552 0.958765
0.473575 0.958506
0.473597 0.958266
0.473619 0.958046
0.473642 0.957846
0.473664 0.957669
0.473687 0.957515
0.473709 0.957387
0.473732 0.957284
0.473754 0.957208
0.473776 0.957161
0.473799 0.957144
0.473821 0.957167
0.473844 0.957236
0.473866 0.957341
0.473889 0.957474
0.473911 0.957627
0.473934 0.957791
0.473956 0.957957
0.473979 0.958118
0.474001 0.958263
0.474024 0.958399
0.474046 0.958533
0.474068 0.958665
0.474091 0.958797
0.474113 0.958927
0.474136 0.959058
0.474158 0.959188
0.474181 0.959318
0.474203 0.959449
0.474226 0.959581
0.474248 0.959715
0.474271 0.95985
0.474293 0.959987
0.474316 0.960126
0.474338 0.960268
0.474361 0.960413
0.474383 0.960561
0.474406 0.960713
0.474428 0.960869
0.474451 0.961029
0.474473 0.961194
0.474496 0.961364
0.474518 0.961539
0.474541 0.96172
0.474563 0.961907
0.474586 0.9621
0.474608 0.962301
0.474631 0.962508
0.474654 0.962722
0.474676 0.962945
0.474699 0.963175
0.474721 0.963428
0.474744 0.963716
0.474766 0.964035
0.474789 0.964382
0.474811 0.964751
0.474834 0.965139
0.474856 0.965541
0.474879 0.965953
0.474901 0.96637
0.474924 0.966788
0.474947 0.967203
0.474969 0.96761
0.474992 0.968005
0.475014 0.968393
0.475037 0.968807
0.475059 0.969247
0.475082 0.969708
0.475105 0.970189
0.475127 0.970684
0.47515 0.971192
0.475172 0.971708
0.475195 0.972229
0.475217 0.972752
0.47524 0.973273
0.475263 0.973789
0.475285 0.974296
0.475308 0.974791
0.47533 0.975271
0.475353 0.975732
0.475376 0.97617
0.475398 0.976583
0.475421 0.976966
0.475443 0.977317
0.475466 0.977631
0.475489 0.977906
0.475511 0.978138
0.475534 0.978324
0.475556 0.978459
0.475579 0.978541
0.475602 0.978566
0.475624 0.978563
0.475647 0.978553
0.47567 0.978537
0.475692 0.978516
0.475715 0.97849
0.475737 0.978458
0.47576 0.978422
0.475783 0.978381
0.475805 0.978337
0.475828 0.978288
0.475851 0.978236
0.475873 0.978181
0.475896 0.978123
0.475919 0.978062
0.475941 0.977998
0.475964 0.977933
0.475986 0.977866
0.476009 0.977796
0.476032 0.977712
0.476054 0.977611
0.476077 0.977493
0.4761 0.97736
0.476122 0.97721
0.476145 0.977046
0.476168 0.976866
0.47619 0.976672
0.476213 0.976464
0.476236 0.976241
0.476259 0.976005
0.476281 0.975756
0.476304 0.975494
0.476327 0.97522
0.476349 0.974933
0.476372 0.974635
0.476395 0.974325
0.476417 0.974004
0.47644 0.973673
0.476463 0.973331
0.476485 0.97298
0.476508 0.972618
0.476531 0.972248
0.476554 0.971868
0.476576 0.97148
0.476599 0.971084
0.476622 0.970651
0.476644 0.97015
0.476667 0.969586
0.47669 0.968962
0.476713 0.968285
0.476735 0.967559
0.476758 0.966789
0.476781 0.96598
0.476804 0.965136
0.476826 0.964262
0.476849 0.963364
0.476872 0.962446
0.476894 0.961513
0.476917 0.96057
0.47694 0.959621
0.476963 0.958672
0.476985 0.957727
0.477008 0.956788
0.477031 0.955817
0.477054 0.954807
0.477076 0.95376
0.477099 0.952679
0.477122 0.951569
0.477145 0.950432
0.477168 0.949271
0.47719 0.94809
0.477213 0.946893
0.477236 0.945681
0.477259 0.94446
0.477281 0.943231
0.477304 0.941999
0.477327 0.940767
0.47735 0.939537
0.477373 0.938314
0.477395 0.9371
0.477418 0.935899
0.477441 0.934715
0.477464 0.933549
0.477487 0.932407
0.477509 0.931287
0.477532 0.930162
0.477555 0.929027
0.477578 0.927884
0.477601 0.926736
0.477623 0.925585
0.477646 0.924433
0.477669 0.923283
0.477692 0.922136
0.477715 0.920995
0.477737 0.919863
0.47776 0.918742
0.477783 0.917633
0.477806 0.916541
0.477829 0.915465
0.477852 0.91441
0.477874 0.913377
0.477897 0.912369
0.47792 0.911388
0.477943 0.910437
0.477966 0.909516
0.477989 0.90863
0.478011 0.907775
0.478034 0.906922
0.478057 0.90607
0.47808 0.905222
0.478103 0.904381
0.478126 0.903551
0.478149 0.902736
0.478171 0.901939
0.478194 0.901164
0.478217 0.900414
0.47824 0.899693
0.478263 0.899004
0.478286 0.898351
0.478309 0.897737
0.478332 0.897166
0.478354 0.896641
0.478377 0.896166
0.4784 0.895745
0.478423 0.895352
0.478446 0.89496
0.478469 0.894571
0.478492 0.894186
0.478515 0.893805
0.478538 0.893431
0.47856 0.893063
0.478583 0.892704
0.478606 0.892354
0.478629 0.892015
0.478652 0.891687
0.478675 0.891372
0.478698 0.89107
0.478721 0.890784
0.478744 0.890514
0.478767 0.89026
0.47879 0.890025
0.478813 0.88981
0.478835 0.889615
0.478858 0.889442
0.478881 0.889291
0.478904 0.889165
0.478927 0.889063
0.47895 0.888988
0.478973 0.888939
0.478996 0.88892
0.479019 0.888922
0.479042 0.888935
0.479065 0.888955
0.479088 0.888984
0.479111 0.889019
0.479134 0.889062
0.479157 0.889112
0.47918 0.889167
0.479203 0.889227
0.479226 0.889292
0.479249 0.889362
0.479272 0.889435
0.479294 0.889511
0.479317 0.88961
0.47934 0.889775
0.479363 0.890006
0.479386 0.8903
0.479409 0.890653
0.479432 0.891063
0.479455 0.891526
0.479478 0.892038
0.479501 0.892598
0.479524 0.893201
0.479547 0.893845
0.47957 0.894526
0.479593 0.895241
0.479616 0.895988
0.479639 0.896762
0.479662 0.89756
0.479685 0.898381
0.479708 0.899219
0.479731 0.900073
0.479754 0.900939
0.479777 0.901813
0.4798 0.902693
0.479823 0.903576
0.479846 0.904458
0.479869 0.905336
0.479893 0.906206
0.479916 0.907067
0.479939 0.907913
0.479962 0.908744
0.479985 0.909554
0.480008 0.910344
0.480031 0.911147
0.480054 0.911974
0.480077 0.912821
0.4801 0.913687
0.480123 0.91457
0.480146 0.915467
0.480169 0.916376
0.480192 0.917296
0.480215 0.918224
0.480238 0.919158
0.480261 0.920097
0.480284 0.921037
0.480307 0.921979
0.48033 0.922937
0.480354 0.923915
0.480377 0.924911
0.4804 0.925924
0.480423 0.926953
0.480446 0.927994
0.480469 0.929047
0.480492 0.93011
0.480515 0.93118
0.480538 0.932257
0.480561 0.933338
0.480584 0.934423
0.480607 0.935508
0.480631 0.936592
0.480654 0.937674
0.480677 0.938751
0.4807 0.939823
0.480723 0.940887
0.480746 0.941941
0.480769 0.942984
0.480792 0.944014
0.480815 0.945029
0.480839 0.946027
0.480862 0.947008
0.480885 0.947968
0.480908 0.948906
0.480931 0.949821
0.480954 0.95071
0.480977 0.951572
0.481 0.952405
0.481024 0.953216
0.481047 0.954011
0.48107 0.954786
0.481093 0.955538
0.481116 0.956265
0.481139 0.956963
0.481162 0.95763
0.481186 0.958262
0.481209 0.95886
0.481232 0.959452
0.481255 0.960044
0.481278 0.960636
0.481301 0.961227
0.481325 0.961817
0.481348 0.962404
0.481371 0.962988
0.481394 0.963568
0.481417 0.964143
0.48144 0.964712
0.481464 0.965275
0.481487 0.96583
0.48151 0.966378
0.481533 0.966917
0.481556 0.967446
0.48158 0.967964
0.481603 0.968472
0.481626 0.968967
0.481649 0.96945
0.481672 0.969918
0.481696 0.970373
0.481719 0.970812
0.481742 0.971235
0.481765 0.971642
0.481788 0.97203
0.481812 0.9724
0.481835 0.972751
0.481858 0.973082
0.481881 0.973392
0.481904 0.973681
0.481928 0.973947
0.481951 0.974189
0.481974 0.974408
0.481997 0.974601
0.482021 0.974783
0.482044 0.974957
0.482067 0.975097
0.48209 0.975175
0.482114 0.975184
0.482137 0.975183
0.48216 0.975182
0.482183 0.97518
0.482207 0.975177
0.48223 0.975175
0.482253 0.975171
0.482276 0.975168
0.4823 0.975164
0.482323 0.975159
0.482346 0.975154
0.482369 0.975149
0.482393 0.975144
0.482416 0.975138
0.482439 0.975133
0.482462 0.975127
0.482486 0.975121
0.482509 0.975115
0.482532 0.975109
0.482556 0.975102
0.482579 0.975096
0.482602 0.97509
0.482625 0.975084
0.482649 0.975078
0.482672 0.975072
0.482695 0.975066
0.482719 0.975061
0.482742 0.975056
0.482765 0.975051
0.482789 0.975046
0.482812 0.975042
0.482835 0.975038
0.482859 0.975035
0.482882 0.975032
0.482905 0.975029
0.482928 0.975027
0.482952 0.975025
0.482975 0.975024
0.482998 0.975024
0.483022 0.975026
0.483045 0.975033
0.483068 0.975044
0.483092 0.97506
0.483115 0.97508
0.483138 0.975105
0.483162 0.975133
0.483185 0.975166
0.483209 0.975203
0.483232 0.975244
0.483255 0.975289
0.483279 0.975338
0.483302 0.97539
0.483325 0.975446
0.483349 0.975505
0.483372 0.975568
0.483395 0.975634
0.483419 0.975703
0.483442 0.975775
0.483465 0.975851
0.483489 0.975929
0.483512 0.976011
0.483536 0.976095
0.483559 0.976181
0.483582 0.976271
0.483606 0.976363
0.483629 0.976457
0.483653 0.976553
0.483676 0.976652
0.483699 0.976753
0.483723 0.976856
0.483746 0.976961
0.48377 0.977068
0.483793 0.977176
0.483816 0.977287
0.48384 0.977398
0.483863 0.977512
0.483887 0.977626
0.48391 0.977742
0.483933 0.97786
0.483957 0.977978
0.48398 0.978097
0.484004 0.978218
0.484027 0.978351
0.484051 0.978501
0.484074 0.978669
0.484097 0.978853
0.484121 0.979053
0.484144 0.979268
0.484168 0.979498
0.484191 0.97974
0.484215 0.979996
0.484238 0.980264
0.484262 0.980543
0.484285 0.980833
0.484308 0.981133
0.484332 0.981442
0.484355 0.98176
0.484379 0.982085
0.484402 0.982417
0.484426 0.982756
0.484449 0.983101
0.484473 0.98345
0.484496 0.983803
0.48452 0.98416
0.484543 0.98452
0.484567 0.984881
0.48459 0.985244
0.484614 0.985607
0.484637 0.985971
0.48466 0.986333
0.484684 0.986693
0.484707 0.987051
0.484731 0.987406
0.484754 0.987757
0.484778 0.988104
0.484801 0.988445
0.484825 0.98878
0.484848 0.989109
0.484872 0.98943
0.484896 0.989742
0.484919 0.990052
0.484943 0.990366
0.484966 0.990679
0.48499 0.990983
0.485013 0.991276
0.485037 0.991577
0.48506 0.991889
0.485084 0.992209
0.485107 0.992538
0.485131 0.992873
0.485154 0.993213
0.485178 0.993558
0.485201 0.993905
0.485225 0.994254
0.485248 0.994604
0.485272 0.994953
0.485296 0.995301
0.485319 0.995645
0.485343 0.995985
0.485366 0.996319
0.48539 0.996646
0.485413 0.996966
0.485437 0.997276
0.48546 0.997576
0.485484 0.997865
0.485508 0.99814
0.485531 0.998401
0.485555 0.998648
0.485578 0.998877
0.485602 0.999089
0.485625 0.999282
0.485649 0.999454
0.485673 0.999606
0.485696 0.999734
0.48572 0.999839
0.485743 0.999919
0.485767 0.999972
0.485791 0.999998
0.485814 0.999998
0.485838 0.999986
0.485861 0.999964
0.485885 0.999934
0.485909 0.999898
0.485932 0.999856
0.485956 0.999811
0.485979 0.999763
0.486003 0.999714
0.486027 0.999661
0.48605 0.999602
0.486074 0.999535
0.486098 0.999462
0.486121 0.999381
0.486145 0.999293
0.486169 0.999198
0.486192 0.999096
0.486216 0.998987
0.486239 0.99887
0.486263 0.998746
0.486287 0.998614
0.48631 0.998475
0.486334 0.998327
0.486358 0.998172
0.486381 0.998009
0.486405 0.997839
0.486429 0.99766
0.486452 0.997473
0.486476 0.997278
0.4865 0.997074
0.486523 0.996863
0.486547 0.996642
0.486571 0.996414
0.486594 0.996177
0.486618 0.995931
0.486642 0.995676
0.486665 0.995413
0.486689 0.995141
0.486713 0.994848
0.486736 0.994479
0.48676 0.994031
0.486784 0.99351
0.486808 0.992923
0.486831 0.992276
0.486855 0.991575
0.486879 0.990826
0.486902 0.990036
0.486926 0.98921
0.48695 0.988356
0.486973 0.987479
0.486997 0.986585
0.487021 0.985658
0.487045 0.984664
0.487068 0.983607
0.487092 0.982486
0.487116 0.981306
0.48714 0.980067
0.487163 0.978772
0.487187 0.977423
0.487211 0.976022
0.487234 0.974571
0.487258 0.973073
0.487282 0.971528
0.487306 0.96994
0.487329 0.96831
0.487353 0.96664
0.487377 0.964933
0.487401 0.963191
0.487424 0.961415
0.487448 0.959608
0.487472 0.957772
0.487496 0.955909
0.48752 0.95402
0.487543 0.952109
0.487567 0.950177
0.487591 0.948227
0.487615 0.94626
0.487638 0.944278
0.487662 0.942284
0.487686 0.94028
0.48771 0.93826
0.487734 0.936166
0.487757 0.933986
0.487781 0.931724
0.487805 0.929383
0.487829 0.926966
0.487852 0.924479
0.487876 0.921923
0.4879 0.919302
0.487924 0.916621
0.487948 0.913882
0.487972 0.91109
0.487995 0.908247
0.488019 0.905345
0.488043 0.902362
0.488067 0.899301
0.488091 0.896166
0.488114 0.892958
0.488138 0.889682
0.488162 0.88634
0.488186 0.882936
0.48821 0.879472
0.488234 0.875953
0.488257 0.872382
0.488281 0.86876
0.488305 0.865093
0.488329 0.861382
0.488353 0.857632
0.488377 0.853845
0.4884 0.850025
0.488424 0.846174
0.488448 0.842296
0.488472 0.838395
0.488496 0.834473
0.48852 0.830534
0.488544 0.82658
0.488568 0.822616
0.488591 0.818644
0.488615 0.814667
0.488639 0.81069
0.488663 0.806714
0.488687 0.802744
0.488711 0.798782
0.488735 0.794832
0.488759 0.790897
0.488782 0.78698
0.488806 0.783085
0.48883 0.779214
0.488854 0.775372
0.488878 0.77156
0.488902 0.767784
0.488926 0.764044
0.48895 0.760346
0.488974 0.756692
0.488998 0.753086
0.489021 0.749514
0.489045 0.745955
0.489069 0.742409
0.489093 0.738873
0.489117 0.735349
0.489141 0.731835
0.489165 0.728331
0.489189 0.724836
0.489213 0.721349
0.489237 0.717871
0.489261 0.714401
0.489285 0.710938
0.489309 0.707481
0.489333 0.70403
0.489356 0.700585
0.48938 0.697144
0.489404 0.693708
0.489428 0.690276
0.489452 0.686847
0.489476 0.683421
0.4895 0.679997
0.489524 0.676574
0.489548 0.673153
0.489572 0.669732
0.489596 0.666311
0.48962 0.662889
0.489644 0.659467
0.489668 0.656042
0.489692 0.652616
0.489716 0.649186
0.48974 0.645754
0.489764 0.642317
0.489788 0.638876
0.489812 0.63543
0.489836 0.631979
0.48986 0.628521
0.489884 0.625057
0.489908 0.621585
0.489932 0.618106
0.489956 0.614619
0.48998 0.611122
0.490004 0.607616
0.490028 0.60411
0.490052 0.600609
0.490076 0.597111
0.4901 0.593616
0.490124 0.590124
0.490148 0.586634
0.490172 0.583146
0.490196 0.579659
0.49022 0.576173
0.490244 0.572687
0.490268 0.5692
0.490292 0.565713
0.490316 0.562224
0.49034 0.558734
0.490364 0.555241
0.490388 0.551745
0.490412 0.548246
0.490436 0.544742
0.490461 0.541235
0.490485 0.537722
0.490509 0.534203
0.490533 0.530679
0.490557 0.527148
0.490581 0.52361
0.490605 0.520065
0.490629 0.516511
0.490653 0.512949
0.490677 0.509378
0.490701 0.505797
0.490725 0.502206
0.490749 0.498604
0.490773 0.494991
0.490798 0.491366
0.490822 0.487729
0.490846 0.484079
0.49087 0.480416
0.490894 0.476739
0.490918 0.473048
0.490942 0.469342
0.490966 0.46562
0.49099 0.461883
0.491014 0.458125
0.491039 0.454328
0.491063 0.450494
0.491087 0.446623
0.491111 0.442719
0.491135 0.438784
0.491159 0.43482
0.491183 0.430829
0.491207 0.426813
0.491232 0.422775
0.491256 0.418717
0.49128 0.414642
0.491304 0.41055
0.491328 0.406446
0.491352 0.40233
0.491376 0.398205
0.4914 0.394074
0.491425 0.389939
0.491449 0.385802
0.491473 0.381665
0.491497 0.37753
0.491521 0.3734
0.491545 0.369278
0.49157 0.365164
0.491594 0.361063
0.491618 0.356975
0.491642 0.352903
0.491666 0.34885
0.49169 0.344817
0.491715 0.340807
0.491739 0.336823
0.491763 0.332866
0.491787 0.328939
0.491811 0.325044
0.491836 0.321183
0.49186 0.317359
0.491884 0.313574
0.491908 0.30983
0.491932 0.30613
0.491957 0.302475
0.491981 0.298869
0.492005 0.295312
0.492029 0.291774
0.492053 0.288245
0.492078 0.284726
0.492102 0.281222
0.492126 0.277736
0.49215 0.274272
0.492174 0.270833
0.492199 0.267422
0.492223 0.264043
0.492247 0.2607
0.492271 0.257396
0.492296 0.254134
0.49232 0.250918
0.492344 0.247752
0.492368 0.244639
0.492393 0.241583
0.492417 0.238586
0.492441 0.235653
0.492465 0.232787
0.49249 0.229992
0.492514 0.227266
0.492538 0.22459
0.492562 0.221961
0.492587 0.219376
0.492611 0.216833
0.492635 0.214331
0.492659 0.211869
0.492684 0.209444
0.492708 0.207056
0.492732 0.204701
0.492756 0.202379
0.492781 0.200087
0.492805 0.197825
0.492829 0.19559
0.492854 0.19338
0.492878 0.191195
0.492902 0.189032
0.492927 0.186889
0.492951 0.184765
0.492975 0.182659
0.492999 0.180568
0.493024 0.178491
0.493048 0.17643
0.493072 0.174383
0.493097 0.172351
0.493121 0.170333
0.493145 0.168329
0.49317 0.166339
0.493194 0.164364
0.493218 0.162401
0.493243 0.160452
0.493267 0.158516
0.493291 0.156593
0.493316 0.154682
0.49334 0.152784
0.493364 0.150899
0.493389 0.149025
0.493413 0.147163
0.493437 0.145313
0.493462 0.143474
0.493486 0.141647
0.49351 0.13983
0.493535 0.138024
0.493559 0.136229
0.493583 0.134444
0.493608 0.132669
0.493632 0.130905
0.493657 0.12915
0.493681 0.127404
0.493705 0.125668
0.49373 0.12394
0.493754 0.122222
0.493778 0.120512
0.493803 0.118811
0.493827 0.117118
0.493852 0.115433
0.493876 0.113756
0.4939 0.112086
0.493925 0.110424
0.493949 0.108769
0.493974 0.107121
0.493998 0.105479
0.494022 0.103836
0.494047 0.102181
0.494071 0.100515
0.494096 0.09884
0.49412 0.097157
0.494144 0.095468
0.494169 0.093775
0.494193 0.092079
0.494218 0.090382
0.494242 0.088685
0.494267 0.08699
0.494291 0.085298
0.494315 0.083611
0.49434 0.08193
0.494364 0.080258
0.494389 0.078595
0.494413 0.076943
0.494438 0.075303
0.494462 0.073679
0.494486 0.07207
0.494511 0.070478
0.494535 0.068905
0.49456 0.067353
0.494584 0.065823
0.494609 0.064317
0.494633 0.062836
0.494658 0.061382
0.494682 0.059956
0.494707 0.05856
0.494731 0.057196
0.494756 0.055864
0.49478 0.054568
0.494805 0.053308
0.494829 0.052085
0.494854 0.050902
0.494878 0.049761
0.494903 0.048661
0.494927 0.047606
0.494951 0.046597
0.494976 0.045635
0.495 0.044722
0.495025 0.043839
0.49505 0.042968
0.495074 0.042108
0.495099 0.04126
0.495123 0.040424
0.495148 0.0396
0.495172 0.038787
0.495197 0.037987
0.495221 0.037199
0.495246 0.036423
0.49527 0.035659
0.495295 0.034908
0.495319 0.034169
0.495344 0.033442
0.495368 0.032728
0.495393 0.032026
0.495417 0.031337
0.495442 0.03066
0.495466 0.029997
0.495491 0.029346
0.495516 0.028708
0.49554 0.028082
0.495565 0.02747
0.495589 0.026871
0.495614 0.026285
0.495638 0.025712
0.495663 0.025152
0.495688 0.024606
0.495712 0.024072
0.495737 0.023553
0.495761 0.023047
0.495786 0.022554
0.49581 0.022075
0.495835 0.02161
0.49586 0.021158
0.495884 0.02072
0.495909 0.020296
0.495933 0.019886
0.495958 0.019491
0.495983 0.019109
0.496007 0.01874
0.496032 0.01838
0.496056 0.018025
0.496081 0.017676
0.496106 0.017332
0.49613 0.016994
0.496155 0.016661
0.496179 0.016333
0.496204 0.016011
0.496229 0.015695
0.496253 0.015383
0.496278 0.015078
0.496303 0.014777
0.496327 0.014482
0.496352 0.014193
0.496376 0.013909
0.496401 0.01363
0.496426 0.013356
0.49645 0.013088
0.496475 0.012825
0.4965 0.012567
0.496524 0.012314
0.496549 0.012067
0.496574 0.011825
0.496598 0.011589
0.496623 0.011357
0.496648 0.011131
0.496672 0.010909
0.496697 0.010693
0.496722 0.010483
0.496746 0.010277
0.496771 0.010076
0.496796 0.009881
0.49682 0.00969
0.496845 0.009505
0.49687 0.009325
0.496894 0.00915
0.496919 0.008979
0.496944 0.008814
0.496968 0.008654
0.496993 0.008499
0.497018 0.008348
0.497043 0.008199
0.497067 0.008053
0.497092 0.007909
0.497117 0.007767
0.497141 0.007627
0.497166 0.007489
0.497191 0.007353
0.497216 0.00722
0.49724 0.007088
0.497265 0.006959
0.49729 0.006832
0.497315 0.006707
0.497339 0.006584
0.497364 0.006464
0.497389 0.006346
0.497413 0.006229
0.497438 0.006115
0.497463 0.006004
0.497488 0.005894
0.497512 0.005787
0.497537 0.005681
0.497562 0.005578
0.497587 0.005477
0.497611 0.005378
0.497636 0.005282
0.497661 0.005187
0.497686 0.005095
0.497711 0.005005
0.497735 0.004917
0.49776 0.004832
0.497785 0.004748
0.49781 0.004667
0.497834 0.004588
0.497859 0.004511
0.497884 0.004436
0.497909 0.004363
0.497934 0.004293
0.497958 0.004225
0.497983 0.004159
0.498008 0.004095
0.498033 0.004032
0.498058 0.003971
0.498082 0.003911
0.498107 0.003852
0.498132 0.003794
0.498157 0.003737
0.498182 0.003681
0.498206 0.003626
0.498231 0.003573
0.498256 0.00352
0.498281 0.003468
0.498306 0.003417
0.498331 0.003367
0.498355 0.003318
0.49838 0.00327
0.498405 0.003223
0.49843 0.003177
0.498455 0.003131
0.49848 0.003086
0.498504 0.003043
0.498529 0.002999
0.498554 0.002957
0.498579 0.002915
0.498604 0.002874
0.498629 0.002834
0.498654 0.002795
0.498679 0.002756
0.498703 0.002717
0.498728 0.00268
0.498753 0.002643
0.498778 0.002606
0.498803 0.00257
0.498828 0.002535
0.498853 0.0025
0.498878 0.002465
0.498902 0.002431
0.498927 0.002398
0.498952 0.002365
0.498977 0.002332
0.499002 0.0023
0.499027 0.002268
0.499052 0.002237
0.499077 0.002205
0.499102 0.002175
0.499127 0.002144
0.499151 0.002115
0.499176 0.002085
0.499201 0.002056
0.499226 0.002027
# -------------------
# GOES18_ABI Band CH064
# -------------------
0.575076 0.002011
0.575109 0.002032
0.575142 0.002054
0.575175 0.002075
0.575209 0.002097
0.575242 0.002119
0.575275 0.002141
0.575308 0.002164
0.575341 0.002187
0.575374 0.00221
0.575407 0.002233
0.57544 0.002256
0.575473 0.00228
0.575506 0.002304
0.57554 0.002328
0.575573 0.002352
0.575606 0.002376
0.575639 0.0024
0.575672 0.002425
0.575705 0.00245
0.575738 0.002474
0.575772 0.002499
0.575805 0.002525
0.575838 0.00255
0.575871 0.002575
0.575904 0.002601
0.575937 0.002626
0.575971 0.002652
0.576004 0.002679
0.576037 0.002708
0.57607 0.002736
0.576103 0.002765
0.576136 0.002794
0.57617 0.002824
0.576203 0.002853
0.576236 0.002883
0.576269 0.002913
0.576302 0.002943
0.576336 0.002974
0.576369 0.003005
0.576402 0.003036
0.576435 0.003067
0.576469 0.003098
0.576502 0.00313
0.576535 0.003161
0.576568 0.003194
0.576602 0.003226
0.576635 0.003258
0.576668 0.003291
0.576701 0.003324
0.576735 0.003358
0.576768 0.003391
0.576801 0.003425
0.576834 0.003459
0.576868 0.003493
0.576901 0.003528
0.576934 0.003563
0.576967 0.003598
0.577001 0.003636
0.577034 0.003676
0.577067 0.003716
0.577101 0.003756
0.577134 0.003797
0.577167 0.003838
0.577201 0.00388
0.577234 0.003922
0.577267 0.003964
0.577301 0.004007
0.577334 0.00405
0.577367 0.004093
0.577401 0.004137
0.577434 0.004181
0.577467 0.004226
0.577501 0.004271
0.577534 0.004316
0.577567 0.004362
0.577601 0.004408
0.577634 0.004454
0.577667 0.004501
0.577701 0.004549
0.577734 0.004596
0.577768 0.004644
0.577801 0.004693
0.577834 0.004741
0.577868 0.004791
0.577901 0.00484
0.577934 0.00489
0.577968 0.004943
0.578001 0.004999
0.578035 0.005056
0.578068 0.005115
0.578102 0.005174
0.578135 0.005233
0.578168 0.005293
0.578202 0.005354
0.578235 0.005416
0.578269 0.005478
0.578302 0.005541
0.578336 0.005604
0.578369 0.005668
0.578402 0.005733
0.578436 0.005798
0.578469 0.005863
0.578503 0.00593
0.578536 0.005997
0.57857 0.006064
0.578603 0.006132
0.578637 0.0062
0.57867 0.006269
0.578704 0.006339
0.578737 0.006409
0.578771 0.006479
0.578804 0.00655
0.578838 0.006622
0.578871 0.006694
0.578905 0.006766
0.578938 0.006841
0.578972 0.006919
0.579005 0.007
0.579039 0.007083
0.579072 0.007167
0.579106 0.007252
0.579139 0.007338
0.579173 0.007425
0.579206 0.007513
0.57924 0.007602
0.579274 0.007691
0.579307 0.007781
0.579341 0.007872
0.579374 0.007964
0.579408 0.008057
0.579441 0.00815
0.579475 0.008244
0.579509 0.008339
0.579542 0.008435
0.579576 0.008531
0.579609 0.008627
0.579643 0.008725
0.579677 0.008823
0.57971 0.008922
0.579744 0.009021
0.579777 0.009121
0.579811 0.009221
0.579845 0.009322
0.579878 0.009423
0.579912 0.009525
0.579945 0.009629
0.579979 0.009738
0.580013 0.009851
0.580046 0.009966
0.58008 0.010081
0.580114 0.010198
0.580147 0.010316
0.580181 0.010434
0.580215 0.010554
0.580248 0.010674
0.580282 0.010796
0.580316 0.010918
0.580349 0.011042
0.580383 0.011166
0.580417 0.011291
0.58045 0.011417
0.580484 0.011545
0.580518 0.011673
0.580552 0.011802
0.580585 0.011932
0.580619 0.012064
0.580653 0.012196
0.580686 0.012329
0.58072 0.012463
0.580754 0.012599
0.580788 0.012735
0.580821 0.012872
0.580855 0.013011
0.580889 0.01315
0.580923 0.01329
0.580956 0.013432
0.58099 0.013579
0.581024 0.01374
0.581058 0.013904
0.581091 0.014069
0.581125 0.014236
0.581159 0.014405
0.581193 0.014576
0.581226 0.014749
0.58126 0.014923
0.581294 0.015099
0.581328 0.015276
0.581362 0.015455
0.581395 0.015636
0.581429 0.015818
0.581463 0.016002
0.581497 0.016188
0.581531 0.016375
0.581564 0.016563
0.581598 0.016753
0.581632 0.016944
0.581666 0.017137
0.5817 0.017331
0.581734 0.017526
0.581767 0.017723
0.581801 0.017921
0.581835 0.01812
0.581869 0.018321
0.581903 0.018522
0.581937 0.018725
0.581971 0.018929
0.582004 0.019135
0.582038 0.019362
0.582072 0.019595
0.582106 0.01983
0.58214 0.020068
0.582174 0.020307
0.582208 0.020548
0.582242 0.020792
0.582276 0.021037
0.582309 0.021285
0.582343 0.021535
0.582377 0.021787
0.582411 0.022041
0.582445 0.022298
0.582479 0.022556
0.582513 0.022817
0.582547 0.02308
0.582581 0.023345
0.582615 0.023612
0.582649 0.023882
0.582683 0.024154
0.582717 0.024428
0.582751 0.024704
0.582785 0.024983
0.582819 0.025263
0.582852 0.025546
0.582886 0.025832
0.58292 0.02612
0.582954 0.02641
0.582988 0.026702
0.583022 0.027
0.583056 0.027318
0.58309 0.027655
0.583124 0.027999
0.583158 0.028346
0.583192 0.028698
0.583226 0.029054
0.58326 0.029414
0.583294 0.029778
0.583328 0.030146
0.583363 0.030518
0.583397 0.030894
0.583431 0.031274
0.583465 0.031658
0.583499 0.032045
0.583533 0.032436
0.583567 0.03283
0.583601 0.033228
0.583635 0.03363
0.583669 0.034035
0.583703 0.034444
0.583737 0.034856
0.583771 0.035271
0.583805 0.03569
0.583839 0.036112
0.583873 0.036537
0.583908 0.036965
0.583942 0.037396
0.583976 0.037831
0.58401 0.038269
0.584044 0.03872
0.584078 0.03919
0.584112 0.039678
0.584146 0.040183
0.58418 0.040695
0.584215 0.041214
0.584249 0.041739
0.584283 0.04227
0.584317 0.042806
0.584351 0.043349
0.584385 0.043897
0.584419 0.044451
0.584454 0.04501
0.584488 0.045575
0.584522 0.046146
0.584556 0.046722
0.58459 0.047303
0.584624 0.04789
0.584659 0.048482
0.584693 0.049079
0.584727 0.049681
0.584761 0.050288
0.584795 0.050901
0.58483 0.051518
0.584864 0.052139
0.584898 0.052766
0.584932 0.053397
0.584966 0.054033
0.585001 0.054674
0.585035 0.055324
0.585069 0.05599
0.585103 0.056676
0.585138 0.057383
0.585172 0.058115
0.585206 0.058873
0.58524 0.059649
0.585274 0.060444
0.585309 0.061256
0.585343 0.062083
0.585377 0.062925
0.585412 0.06378
0.585446 0.064646
0.58548 0.065523
0.585514 0.066409
0.585549 0.067303
0.585583 0.068204
0.585617 0.06911
0.585652 0.07002
0.585686 0.070933
0.58572 0.071847
0.585754 0.072762
0.585789 0.073676
0.585823 0.074588
0.585857 0.075496
0.585892 0.076399
0.585926 0.077296
0.58596 0.078186
0.585995 0.079067
0.586029 0.079946
0.586063 0.080834
0.586098 0.081725
0.586132 0.082613
0.586166 0.08349
0.586201 0.084352
0.586235 0.085192
0.58627 0.086011
0.586304 0.086818
0.586338 0.087616
0.586373 0.088403
0.586407 0.089182
0.586441 0.089953
0.586476 0.090717
0.58651 0.091476
0.586545 0.092229
0.586579 0.092978
0.586613 0.093723
0.586648 0.094466
0.586682 0.095208
0.586717 0.095949
0.586751 0.09669
0.586786 0.097432
0.58682 0.098176
0.586854 0.098923
0.586889 0.099674
0.586923 0.10043
0.586958 0.101191
0.586992 0.101959
0.587027 0.102731
0.587061 0.1035
0.587096 0.104266
0.58713 0.105031
0.587165 0.105794
0.587199 0.106555
0.587234 0.107316
0.587268 0.108076
0.587303 0.108837
0.587337 0.109597
0.587372 0.110359
0.587406 0.111122
0.587441 0.111887
0.587475 0.112654
0.58751 0.113424
0.587544 0.114197
0.587579 0.114973
0.587613 0.115754
0.587648 0.116538
0.587682 0.117328
0.587717 0.118123
0.587751 0.118923
0.587786 0.11973
0.58782 0.120543
0.587855 0.121364
0.587889 0.122192
0.587924 0.123027
0.587959 0.123872
0.587993 0.124724
0.588028 0.12561
0.588062 0.126546
0.588097 0.127488
0.588132 0.128435
0.588166 0.129387
0.588201 0.130343
0.588235 0.131305
0.58827 0.132271
0.588305 0.133243
0.588339 0.13422
0.588374 0.135202
0.588408 0.136189
0.588443 0.137181
0.588478 0.138179
0.588512 0.139182
0.588547 0.140191
0.588582 0.141205
0.588616 0.142225
0.588651 0.14325
0.588685 0.144282
0.58872 0.145319
0.588755 0.146362
0.588789 0.147411
0.588824 0.148466
0.588859 0.149527
0.588893 0.150594
0.588928 0.151667
0.588963 0.152747
0.588998 0.153832
0.589032 0.154926
0.589067 0.156029
0.589102 0.157142
0.589136 0.158264
0.589171 0.159394
0.589206 0.160532
0.58924 0.161679
0.589275 0.162833
0.58931 0.163994
0.589345 0.165163
0.589379 0.166338
0.589414 0.16752
0.589449 0.168707
0.589484 0.1699
0.589518 0.171099
0.589553 0.172303
0.589588 0.173511
0.589623 0.174724
0.589657 0.175941
0.589692 0.177161
0.589727 0.178386
0.589762 0.179613
0.589797 0.180843
0.589831 0.182075
0.589866 0.183309
0.589901 0.184546
0.589936 0.185795
0.589971 0.187068
0.590005 0.188374
0.59004 0.189697
0.590075 0.191028
0.59011 0.192366
0.590145 0.19371
0.590179 0.195062
0.590214 0.19642
0.590249 0.197785
0.590284 0.199157
0.590319 0.200536
0.590354 0.201921
0.590388 0.203313
0.590423 0.204711
0.590458 0.206116
0.590493 0.207527
0.590528 0.208945
0.590563 0.210368
0.590598 0.211798
0.590633 0.213234
0.590667 0.214677
0.590702 0.216125
0.590737 0.217579
0.590772 0.219039
0.590807 0.220505
0.590842 0.221977
0.590877 0.223454
0.590912 0.224938
0.590947 0.226426
0.590982 0.227921
0.591017 0.229421
0.591051 0.230932
0.591086 0.232454
0.591121 0.233986
0.591156 0.235528
0.591191 0.237079
0.591226 0.23864
0.591261 0.240209
0.591296 0.241786
0.591331 0.24337
0.591366 0.244962
0.591401 0.24656
0.591436 0.248164
0.591471 0.249774
0.591506 0.25139
0.591541 0.25301
0.591576 0.254635
0.591611 0.256263
0.591646 0.257895
0.591681 0.259529
0.591716 0.261167
0.591751 0.262806
0.591786 0.264449
0.591821 0.266101
0.591856 0.267762
0.591891 0.269436
0.591926 0.271125
0.591961 0.27283
0.591996 0.274553
0.592031 0.276293
0.592066 0.27804
0.592101 0.279795
0.592136 0.281559
0.592171 0.283329
0.592207 0.285107
0.592242 0.286892
0.592277 0.288685
0.592312 0.290484
0.592347 0.29229
0.592382 0.294103
0.592417 0.295923
0.592452 0.297749
0.592487 0.299581
0.592522 0.301419
0.592557 0.303263
0.592593 0.305113
0.592628 0.306969
0.592663 0.30883
0.592698 0.310696
0.592733 0.312568
0.592768 0.314444
0.592803 0.316326
0.592839 0.318212
0.592874 0.320103
0.592909 0.321999
0.592944 0.323899
0.592979 0.325803
0.593014 0.327711
0.593049 0.329629
0.593085 0.331556
0.59312 0.333493
0.593155 0.335439
0.59319 0.337394
0.593225 0.339357
0.593261 0.341327
0.593296 0.343305
0.593331 0.345289
0.593366 0.34728
0.593401 0.349277
0.593437 0.351279
0.593472 0.353286
0.593507 0.355297
0.593542 0.357313
0.593577 0.359332
0.593613 0.361355
0.593648 0.363382
0.593683 0.365415
0.593718 0.367456
0.593754 0.369503
0.593789 0.371558
0.593824 0.373621
0.593859 0.375693
0.593895 0.377773
0.59393 0.379864
0.593965 0.381964
0.594001 0.384075
0.594036 0.386195
0.594071 0.388323
0.594106 0.390458
0.594142 0.3926
0.594177 0.394749
0.594212 0.396904
0.594248 0.399066
0.594283 0.401233
0.594318 0.403407
0.594354 0.405585
0.594389 0.407769
0.594424 0.409957
0.59446 0.41215
0.594495 0.414348
0.59453 0.416549
0.594566 0.418755
0.594601 0.420963
0.594636 0.423175
0.594672 0.42539
0.594707 0.427608
0.594742 0.429828
0.594778 0.43205
0.594813 0.434275
0.594849 0.4365
0.594884 0.438727
0.594919 0.440956
0.594955 0.443185
0.59499 0.445414
0.595026 0.447645
0.595061 0.449878
0.595096 0.452114
0.595132 0.454355
0.595167 0.456602
0.595203 0.458853
0.595238 0.461111
0.595274 0.463377
0.595309 0.46565
0.595344 0.467931
0.59538 0.470222
0.595415 0.472523
0.595451 0.474836
0.595486 0.477158
0.595522 0.479491
0.595557 0.481832
0.595593 0.484181
0.595628 0.486536
0.595664 0.488896
0.595699 0.491261
0.595735 0.49363
0.59577 0.496001
0.595806 0.498373
0.595841 0.500745
0.595877 0.503116
0.595912 0.505486
0.595948 0.507853
0.595983 0.510216
0.596019 0.512576
0.596054 0.514942
0.59609 0.517316
0.596125 0.519697
0.596161 0.522083
0.596196 0.524474
0.596232 0.526868
0.596267 0.529266
0.596303 0.531666
0.596338 0.534067
0.596374 0.536468
0.59641 0.538868
0.596445 0.541267
0.596481 0.543663
0.596516 0.546056
0.596552 0.548445
0.596588 0.550829
0.596623 0.553206
0.596659 0.555577
0.596694 0.557939
0.59673 0.560293
0.596766 0.562637
0.596801 0.564971
0.596837 0.567292
0.596872 0.569602
0.596908 0.571898
0.596944 0.57418
0.596979 0.576446
0.597015 0.578695
0.597051 0.580905
0.597086 0.583059
0.597122 0.585166
0.597158 0.587253
0.597193 0.589323
0.597229 0.591376
0.597265 0.593414
0.5973 0.595439
0.597336 0.59745
0.597372 0.599451
0.597407 0.601441
0.597443 0.603423
0.597479 0.605397
0.597514 0.607365
0.59755 0.609328
0.597586 0.611288
0.597621 0.613245
0.597657 0.615201
0.597693 0.617158
0.597729 0.619116
0.597764 0.621076
0.5978 0.623041
0.597836 0.625011
0.597872 0.626988
0.597907 0.628973
0.597943 0.630967
0.597979 0.632972
0.598015 0.634986
0.59805 0.636995
0.598086 0.638996
0.598122 0.640991
0.598158 0.64298
0.598193 0.644967
0.598229 0.646952
0.598265 0.648938
0.598301 0.650926
0.598337 0.652918
0.598372 0.654915
0.598408 0.656919
0.598444 0.658932
0.59848 0.660955
0.598516 0.662991
0.598552 0.66504
0.598587 0.667105
0.598623 0.669187
0.598659 0.671289
0.598695 0.673411
0.598731 0.675555
0.598767 0.677723
0.598802 0.679922
0.598838 0.682176
0.598874 0.684476
0.59891 0.686808
0.598946 0.689159
0.598982 0.691516
0.599018 0.693871
0.599053 0.696243
0.599089 0.698634
0.599125 0.701043
0.599161 0.703467
0.599197 0.705905
0.599233 0.708353
0.599269 0.710811
0.599305 0.713275
0.599341 0.715743
0.599377 0.718213
0.599413 0.720684
0.599449 0.723153
0.599484 0.725617
0.59952 0.728074
0.599556 0.730523
0.599592 0.732961
0.599628 0.735386
0.599664 0.737795
0.5997 0.740187
0.599736 0.742559
0.599772 0.744909
0.599808 0.747235
0.599844 0.749535
0.59988 0.751806
0.599916 0.754037
0.599952 0.756214
0.599988 0.75834
0.600024 0.760428
0.60006 0.762511
0.600096 0.764592
0.600132 0.766669
0.600168 0.768741
0.600204 0.770806
0.60024 0.772863
0.600276 0.774912
0.600312 0.776949
0.600348 0.778974
0.600384 0.780987
0.60042 0.782984
0.600456 0.784965
0.600492 0.786929
0.600528 0.788874
0.600565 0.790799
0.600601 0.792703
0.600637 0.794584
0.600673 0.79644
0.600709 0.798271
0.600745 0.800075
0.600781 0.80185
0.600817 0.803596
0.600853 0.805304
0.600889 0.806959
0.600925 0.808561
0.600962 0.810113
0.600998 0.811616
0.601034 0.813093
0.60107 0.814566
0.601106 0.816033
0.601142 0.817493
0.601178 0.818944
0.601214 0.820386
0.601251 0.821815
0.601287 0.82323
0.601323 0.82463
0.601359 0.826013
0.601395 0.827377
0.601431 0.82872
0.601468 0.830042
0.601504 0.83134
0.60154 0.832612
0.601576 0.833858
0.601612 0.835075
0.601649 0.836261
0.601685 0.837415
0.601721 0.838535
0.601757 0.83962
0.601793 0.840665
0.60183 0.841664
0.601866 0.84262
0.601902 0.843535
0.601938 0.844415
0.601974 0.845261
0.602011 0.846079
0.602047 0.84688
0.602083 0.847669
0.602119 0.848446
0.602156 0.849211
0.602192 0.849964
0.602228 0.850705
0.602265 0.851434
0.602301 0.852151
0.602337 0.852857
0.602373 0.853552
0.60241 0.854235
0.602446 0.854907
0.602482 0.855567
0.602519 0.856217
0.602555 0.856856
0.602591 0.857483
0.602627 0.858101
0.602664 0.858707
0.6027 0.859303
0.602736 0.859889
0.602773 0.86046
0.602809 0.861018
0.602845 0.861559
0.602882 0.862084
0.602918 0.862591
0.602954 0.863079
0.602991 0.863548
0.603027 0.864001
0.603064 0.864451
0.6031 0.864899
0.603136 0.865343
0.603173 0.865782
0.603209 0.866215
0.603245 0.86664
0.603282 0.867057
0.603318 0.867465
0.603355 0.867861
0.603391 0.868246
0.603427 0.868617
0.603464 0.868975
0.6035 0.869317
0.603537 0.869642
0.603573 0.86995
0.60361 0.870239
0.603646 0.870508
0.603682 0.870758
0.603719 0.870992
0.603755 0.871213
0.603792 0.871422
0.603828 0.87162
0.603865 0.871809
0.603901 0.871989
0.603938 0.872163
0.603974 0.872332
0.604011 0.872497
0.604047 0.872659
0.604084 0.872818
0.60412 0.872974
0.604157 0.873127
0.604193 0.873276
0.60423 0.873422
0.604266 0.873564
0.604303 0.873703
0.604339 0.873838
0.604376 0.87397
0.604412 0.874098
0.604449 0.874222
0.604485 0.874342
0.604522 0.874458
0.604558 0.87457
0.604595 0.874678
0.604631 0.874782
0.604668 0.874881
0.604705 0.874977
0.604741 0.87507
0.604778 0.875159
0.604814 0.875246
0.604851 0.87533
0.604887 0.875412
0.604924 0.875492
0.604961 0.87557
0.604997 0.875647
0.605034 0.875723
0.60507 0.875798
0.605107 0.875871
0.605144 0.875942
0.60518 0.876012
0.605217 0.876081
0.605254 0.876149
0.60529 0.876215
0.605327 0.876281
0.605364 0.876345
0.6054 0.876408
0.605437 0.87647
0.605473 0.876532
0.60551 0.876592
0.605547 0.876652
0.605583 0.87671
0.60562 0.876766
0.605657 0.876821
0.605694 0.876874
0.60573 0.876926
0.605767 0.876978
0.605804 0.877029
0.60584 0.877081
0.605877 0.877133
0.605914 0.877185
0.60595 0.877239
0.605987 0.877295
0.606024 0.877352
0.606061 0.87741
0.606097 0.877471
0.606134 0.877532
0.606171 0.877594
0.606208 0.877656
0.606244 0.877718
0.606281 0.877781
0.606318 0.877843
0.606355 0.877904
0.606391 0.877964
0.606428 0.878023
0.606465 0.878081
0.606502 0.878136
0.606538 0.878189
0.606575 0.878239
0.606612 0.878287
0.606649 0.878334
0.606686 0.878381
0.606722 0.878427
0.606759 0.878474
0.606796 0.878522
0.606833 0.878571
0.60687 0.878622
0.606907 0.878676
0.606943 0.878734
0.60698 0.878795
0.607017 0.87886
0.607054 0.878929
0.607091 0.879001
0.607128 0.879078
0.607165 0.879158
0.607201 0.879242
0.607238 0.879331
0.607275 0.879423
0.607312 0.87952
0.607349 0.879621
0.607386 0.879727
0.607423 0.879837
0.60746 0.879955
0.607497 0.880083
0.607533 0.880222
0.60757 0.880369
0.607607 0.880525
0.607644 0.880687
0.607681 0.880854
0.607718 0.881027
0.607755 0.881202
0.607792 0.88138
0.607829 0.88156
0.607866 0.88174
0.607903 0.881919
0.60794 0.882096
0.607977 0.88227
0.608014 0.882441
0.608051 0.882615
0.608088 0.882794
0.608125 0.882975
0.608162 0.883158
0.608199 0.88334
0.608236 0.88352
0.608273 0.883697
0.60831 0.883869
0.608347 0.884033
0.608384 0.884191
0.608421 0.884343
0.608458 0.884492
0.608495 0.884638
0.608532 0.884781
0.608569 0.884921
0.608606 0.885059
0.608643 0.885195
0.60868 0.88533
0.608717 0.885463
0.608754 0.885596
0.608791 0.885728
0.608828 0.885859
0.608865 0.885991
0.608902 0.886124
0.608939 0.886257
0.608976 0.886392
0.609013 0.886528
0.60905 0.886662
0.609088 0.886795
0.609125 0.886927
0.609162 0.887059
0.609199 0.887193
0.609236 0.887328
0.609273 0.887466
0.60931 0.887607
0.609347 0.887752
0.609385 0.887901
0.609422 0.888052
0.609459 0.888207
0.609496 0.888363
0.609533 0.888521
0.60957 0.888681
0.609607 0.888842
0.609645 0.889003
0.609682 0.889165
0.609719 0.889326
0.609756 0.889486
0.609793 0.889645
0.60983 0.889803
0.609868 0.889959
0.609905 0.890112
0.609942 0.890263
0.609979 0.89041
0.610016 0.890554
0.610054 0.890697
0.610091 0.890839
0.610128 0.890978
0.610165 0.891113
0.610203 0.891244
0.61024 0.89137
0.610277 0.891489
0.610314 0.891607
0.610352 0.891722
0.610389 0.891835
0.610426 0.891945
0.610463 0.892054
0.610501 0.892161
0.610538 0.892267
0.610575 0.892371
0.610612 0.892473
0.61065 0.892575
0.610687 0.892675
0.610724 0.892774
0.610762 0.892872
0.610799 0.892969
0.610836 0.893066
0.610874 0.893162
0.610911 0.893257
0.610948 0.893352
0.610986 0.893447
0.611023 0.893542
0.61106 0.893636
0.611098 0.893728
0.611135 0.893817
0.611172 0.893902
0.61121 0.893983
0.611247 0.894062
0.611284 0.894142
0.611322 0.894222
0.611359 0.894302
0.611396 0.894381
0.611434 0.894459
0.611471 0.894537
0.611509 0.894613
0.611546 0.894688
0.611583 0.894762
0.611621 0.894833
0.611658 0.894903
0.611696 0.89497
0.611733 0.895035
0.61177 0.895097
0.611808 0.895156
0.611845 0.895213
0.611883 0.895265
0.61192 0.895315
0.611958 0.89536
0.611995 0.895401
0.612033 0.895437
0.61207 0.895466
0.612107 0.895494
0.612145 0.895526
0.612182 0.895562
0.61222 0.895598
0.612257 0.895635
0.612295 0.895673
0.612332 0.895712
0.61237 0.895751
0.612407 0.895792
0.612445 0.895833
0.612482 0.895875
0.61252 0.895917
0.612557 0.895961
0.612595 0.896004
0.612632 0.896049
0.61267 0.896093
0.612708 0.896139
0.612745 0.896184
0.612783 0.89623
0.61282 0.896277
0.612858 0.896324
0.612895 0.896371
0.612933 0.896418
0.61297 0.896465
0.613008 0.896514
0.613046 0.896574
0.613083 0.896608
0.613121 0.896624
0.613158 0.896639
0.613196 0.896653
0.613234 0.896666
0.613271 0.896679
0.613309 0.89669
0.613346 0.896701
0.613384 0.896712
0.613422 0.896721
0.613459 0.89673
0.613497 0.896738
0.613535 0.896746
0.613572 0.896752
0.61361 0.896759
0.613648 0.896764
0.613685 0.896769
0.613723 0.896773
0.613761 0.896777
0.613798 0.89678
0.613836 0.896782
0.613874 0.896784
0.613911 0.896786
0.613949 0.896787
0.613987 0.896787
0.614024 0.896782
0.614062 0.896769
0.6141 0.896749
0.614137 0.896723
0.614175 0.896691
0.614213 0.896655
0.614251 0.896616
0.614288 0.896572
0.614326 0.896526
0.614364 0.896478
0.614402 0.896428
0.614439 0.896377
0.614477 0.896325
0.614515 0.896274
0.614553 0.896223
0.61459 0.896174
0.614628 0.896127
0.614666 0.896083
0.614704 0.896042
0.614742 0.896004
0.614779 0.895971
0.614817 0.895943
0.614855 0.895921
0.614893 0.895905
0.614931 0.895896
0.614968 0.895896
0.615006 0.89591
0.615044 0.895923
0.615082 0.895936
0.61512 0.895949
0.615157 0.895961
0.615195 0.895974
0.615233 0.895987
0.615271 0.896
0.615309 0.896013
0.615347 0.896027
0.615385 0.896041
0.615422 0.896055
0.61546 0.89607
0.615498 0.896086
0.615536 0.896102
0.615574 0.896119
0.615612 0.896137
0.61565 0.896156
0.615688 0.896176
0.615726 0.896197
0.615764 0.896219
0.615801 0.896242
0.615839 0.896267
0.615877 0.896292
0.615915 0.896321
0.615953 0.896362
0.615991 0.896411
0.616029 0.896462
0.616067 0.896514
0.616105 0.896567
0.616143 0.896622
0.616181 0.896678
0.616219 0.896736
0.616257 0.896796
0.616295 0.896858
0.616333 0.896921
0.616371 0.896987
0.616409 0.897054
0.616447 0.897124
0.616485 0.897197
0.616523 0.897271
0.616561 0.897348
0.616599 0.897428
0.616637 0.897511
0.616675 0.897596
0.616713 0.897684
0.616751 0.897776
0.616789 0.89787
0.616827 0.897968
0.616865 0.898073
0.616903 0.898198
0.616941 0.898337
0.616979 0.898486
0.617017 0.898638
0.617055 0.898796
0.617093 0.898959
0.617132 0.899126
0.61717 0.899298
0.617208 0.899474
0.617246 0.899655
0.617284 0.89984
0.617322 0.900028
0.61736 0.900221
0.617398 0.900416
0.617436 0.900615
0.617475 0.900817
0.617513 0.901022
0.617551 0.90123
0.617589 0.90144
0.617627 0.901652
0.617665 0.901867
0.617703 0.902083
0.617742 0.902301
0.61778 0.90252
0.617818 0.902745
0.617856 0.902978
0.617894 0.903218
0.617932 0.903467
0.617971 0.903722
0.618009 0.903985
0.618047 0.904256
0.618085 0.904537
0.618123 0.904825
0.618162 0.905121
0.6182 0.905422
0.618238 0.905729
0.618276 0.906039
0.618314 0.906353
0.618353 0.906668
0.618391 0.906985
0.618429 0.907301
0.618467 0.907617
0.618506 0.907931
0.618544 0.908242
0.618582 0.908548
0.61862 0.90885
0.618659 0.909146
0.618697 0.909435
0.618735 0.909716
0.618774 0.909989
0.618812 0.910257
0.61885 0.910521
0.618888 0.910783
0.618927 0.911044
0.618965 0.911307
0.619003 0.911572
0.619042 0.911839
0.61908 0.912102
0.619118 0.912365
0.619157 0.912626
0.619195 0.912886
0.619233 0.913147
0.619272 0.913407
0.61931 0.913669
0.619348 0.913933
0.619387 0.914198
0.619425 0.914466
0.619464 0.914737
0.619502 0.915011
0.61954 0.91529
0.619579 0.915573
0.619617 0.915862
0.619655 0.916156
0.619694 0.916459
0.619732 0.916773
0.619771 0.917097
0.619809 0.917426
0.619848 0.91776
0.619886 0.918094
0.619924 0.918427
0.619963 0.918756
0.620001 0.919079
0.62004 0.919401
0.620078 0.919728
0.620117 0.920058
0.620155 0.920391
0.620194 0.920725
0.620232 0.921058
0.62027 0.921389
0.620309 0.921716
0.620347 0.922038
0.620386 0.922354
0.620424 0.922661
0.620463 0.922959
0.620501 0.923246
0.62054 0.92352
0.620578 0.923781
0.620617 0.924026
0.620655 0.92426
0.620694 0.924482
0.620732 0.924696
0.620771 0.924903
0.62081 0.925103
0.620848 0.925299
0.620887 0.925492
0.620925 0.925683
0.620964 0.925874
0.621002 0.926066
0.621041 0.926256
0.621079 0.926443
0.621118 0.926626
0.621157 0.926806
0.621195 0.926984
0.621234 0.92716
0.621272 0.927336
0.621311 0.927512
0.62135 0.927688
0.621388 0.927865
0.621427 0.928044
0.621465 0.928225
0.621504 0.92841
0.621543 0.928598
0.621581 0.92879
0.62162 0.928987
0.621659 0.929187
0.621697 0.929389
0.621736 0.929592
0.621775 0.929796
0.621813 0.93
0.621852 0.930203
0.621891 0.930405
0.621929 0.930603
0.621968 0.930798
0.622007 0.930989
0.622045 0.931177
0.622084 0.931363
0.622123 0.931549
0.622161 0.931733
0.6222 0.931915
0.622239 0.932096
0.622278 0.932276
0.622316 0.932453
0.622355 0.932629
0.622394 0.932802
0.622432 0.932974
0.622471 0.933143
0.62251 0.933312
0.622549 0.933481
0.622587 0.933651
0.622626 0.933821
0.622665 0.933989
0.622704 0.934156
0.622743 0.93432
0.622781 0.934481
0.62282 0.934638
0.622859 0.93479
0.622898 0.934938
0.622937 0.935079
0.622975 0.935213
0.623014 0.93534
0.623053 0.935467
0.623092 0.935593
0.623131 0.935718
0.623169 0.935839
0.623208 0.935956
0.623247 0.936066
0.623286 0.936168
0.623325 0.936261
0.623364 0.936343
0.623403 0.936412
0.623441 0.936469
0.62348 0.936524
0.623519 0.936576
0.623558 0.936627
0.623597 0.936675
0.623636 0.936721
0.623675 0.936765
0.623714 0.936805
0.623752 0.936842
0.623791 0.936876
0.62383 0.936906
0.623869 0.936932
0.623908 0.936954
0.623947 0.936972
0.623986 0.936986
0.624025 0.936996
0.624064 0.937005
0.624103 0.937013
0.624142 0.937021
0.624181 0.937027
0.62422 0.937033
0.624259 0.937038
0.624298 0.937041
0.624337 0.937042
0.624376 0.937043
0.624415 0.937041
0.624454 0.937038
0.624493 0.937034
0.624532 0.937029
0.624571 0.937022
0.62461 0.937016
0.624649 0.937009
0.624688 0.937002
0.624727 0.936994
0.624766 0.936988
0.624805 0.936981
0.624844 0.936975
0.624883 0.936971
0.624922 0.936967
0.624961 0.936965
0.625 0.936964
0.625039 0.936965
0.625078 0.936968
0.625117 0.936972
0.625156 0.936976
0.625195 0.936981
0.625234 0.936985
0.625274 0.936987
0.625313 0.936986
0.625352 0.936975
0.625391 0.936951
0.62543 0.936918
0.625469 0.936875
0.625508 0.936826
0.625547 0.93677
0.625586 0.936711
0.625626 0.936648
0.625665 0.936585
0.625704 0.936522
0.625743 0.936461
0.625782 0.936403
0.625821 0.93635
0.625861 0.936303
0.6259 0.936265
0.625939 0.936236
0.625978 0.936218
0.626017 0.936211
0.626056 0.936207
0.626096 0.936203
0.626135 0.9362
0.626174 0.936198
0.626213 0.936197
0.626253 0.936197
0.626292 0.936204
0.626331 0.936219
0.62637 0.93624
0.626409 0.936269
0.626449 0.936303
0.626488 0.936343
0.626527 0.936388
0.626566 0.936437
0.626606 0.936491
0.626645 0.936548
0.626684 0.936608
0.626723 0.936671
0.626763 0.936735
0.626802 0.936802
0.626841 0.936869
0.626881 0.936937
0.62692 0.937005
0.626959 0.937073
0.626999 0.93714
0.627038 0.937224
0.627077 0.937332
0.627117 0.937436
0.627156 0.93751
0.627195 0.937538
0.627235 0.937555
0.627274 0.937569
0.627313 0.937581
0.627353 0.937591
0.627392 0.937599
0.627431 0.937605
0.627471 0.93761
0.62751 0.937615
0.627549 0.937619
0.627589 0.937622
0.627628 0.937626
0.627668 0.93763
0.627707 0.937634
0.627746 0.93764
0.627786 0.937647
0.627825 0.937655
0.627865 0.937665
0.627904 0.937677
0.627943 0.937691
0.627983 0.937708
0.628022 0.937737
0.628062 0.937806
0.628101 0.937898
0.628141 0.937993
0.62818 0.938099
0.62822 0.938216
0.628259 0.938343
0.628299 0.938481
0.628338 0.938626
0.628378 0.93878
0.628417 0.93894
0.628457 0.939106
0.628496 0.939278
0.628536 0.939453
0.628575 0.939632
0.628615 0.939813
0.628654 0.939996
0.628694 0.940179
0.628733 0.940362
0.628773 0.940544
0.628812 0.940723
0.628852 0.9409
0.628891 0.941072
0.628931 0.94124
0.62897 0.941402
0.62901 0.941557
0.62905 0.941707
0.629089 0.941847
0.629129 0.941982
0.629168 0.942114
0.629208 0.942241
0.629247 0.942366
0.629287 0.942488
0.629327 0.942608
0.629366 0.942726
0.629406 0.942844
0.629445 0.94296
0.629485 0.943077
0.629525 0.943194
0.629564 0.943311
0.629604 0.94343
0.629644 0.943551
0.629683 0.943674
0.629723 0.9438
0.629763 0.943929
0.629802 0.944062
0.629842 0.944199
0.629882 0.944341
0.629921 0.944487
0.629961 0.94464
0.630001 0.944804
0.63004 0.94499
0.63008 0.945178
0.63012 0.945366
0.630159 0.945555
0.630199 0.945745
0.630239 0.945935
0.630279 0.946126
0.630318 0.946317
0.630358 0.946509
0.630398 0.946701
0.630438 0.946893
0.630477 0.947086
0.630517 0.947279
0.630557 0.947472
0.630597 0.947665
0.630636 0.947858
0.630676 0.94805
0.630716 0.948243
0.630756 0.948436
0.630795 0.948628
0.630835 0.948819
0.630875 0.949011
0.630915 0.949202
0.630955 0.949391
0.630994 0.949581
0.631034 0.949779
0.631074 0.949983
0.631114 0.950193
0.631154 0.950407
0.631194 0.950625
0.631233 0.950845
0.631273 0.951068
0.631313 0.951293
0.631353 0.951518
0.631393 0.951743
0.631433 0.951968
0.631473 0.95219
0.631512 0.952411
0.631552 0.952628
0.631592 0.952842
0.631632 0.953051
0.631672 0.953255
0.631712 0.953452
0.631752 0.953643
0.631792 0.953826
0.631832 0.954001
0.631872 0.954167
0.631912 0.954319
0.631951 0.954459
0.631991 0.954593
0.632031 0.954725
0.632071 0.954854
0.632111 0.95498
0.632151 0.955104
0.632191 0.955226
0.632231 0.955345
0.632271 0.955464
0.632311 0.955581
0.632351 0.955697
0.632391 0.955813
0.632431 0.955928
0.632471 0.956043
0.632511 0.956158
0.632551 0.956273
0.632591 0.95639
0.632631 0.956507
0.632671 0.956625
0.632711 0.956745
0.632751 0.956867
0.632791 0.956991
0.632831 0.957117
0.632871 0.957245
0.632911 0.957374
0.632951 0.957506
0.632992 0.957641
0.633032 0.957779
0.633072 0.957919
0.633112 0.958061
0.633152 0.958206
0.633192 0.958352
0.633232 0.958499
0.633272 0.958648
0.633312 0.958798
0.633352 0.958949
0.633392 0.959101
0.633433 0.959253
0.633473 0.959405
0.633513 0.959557
0.633553 0.959709
0.633593 0.959861
0.633633 0.960012
0.633673 0.960162
0.633714 0.960311
0.633754 0.960459
0.633794 0.960606
0.633834 0.960754
0.633874 0.960901
0.633914 0.961048
0.633955 0.961193
0.633995 0.961337
0.634035 0.96148
0.634075 0.961625
0.634115 0.961771
0.634156 0.961918
0.634196 0.962065
0.634236 0.962211
0.634276 0.962357
0.634317 0.962502
0.634357 0.962646
0.634397 0.962788
0.634437 0.962927
0.634478 0.963064
0.634518 0.963197
0.634558 0.963327
0.634598 0.963453
0.634639 0.963575
0.634679 0.963692
0.634719 0.963803
0.634759 0.963909
0.6348 0.964011
0.63484 0.96411
0.63488 0.964206
0.634921 0.964301
0.634961 0.964396
0.635001 0.964491
0.635042 0.964585
0.635082 0.964676
0.635122 0.964765
0.635163 0.964852
0.635203 0.964938
0.635243 0.965023
0.635284 0.965108
0.635324 0.965193
0.635364 0.96528
0.635405 0.965368
0.635445 0.965459
0.635486 0.965552
0.635526 0.965649
0.635566 0.96575
0.635607 0.965855
0.635647 0.965967
0.635687 0.966085
0.635728 0.96621
0.635768 0.96634
0.635809 0.966475
0.635849 0.966612
0.63589 0.966752
0.63593 0.966892
0.63597 0.967033
0.636011 0.967173
0.636051 0.967324
0.636092 0.967488
0.636132 0.967663
0.636173 0.967843
0.636213 0.968026
0.636254 0.968207
0.636294 0.968384
0.636335 0.968552
0.636375 0.968708
0.636416 0.968847
0.636456 0.968967
0.636497 0.969064
0.636537 0.969134
0.636578 0.969177
0.636618 0.969215
0.636659 0.96925
0.636699 0.969283
0.63674 0.969312
0.63678 0.969339
0.636821 0.969362
0.636862 0.969381
0.636902 0.969396
0.636943 0.969406
0.636983 0.969411
0.637024 0.96941
0.637064 0.969401
0.637105 0.969385
0.637146 0.969363
0.637186 0.969338
0.637227 0.96931
0.637267 0.969282
0.637308 0.969254
0.637349 0.969229
0.637389 0.969207
0.63743 0.969191
0.637471 0.969181
0.637511 0.969181
0.637552 0.969194
0.637592 0.969221
0.637633 0.969259
0.637674 0.969305
0.637714 0.969357
0.637755 0.969414
0.637796 0.969472
0.637836 0.969529
0.637877 0.969584
0.637918 0.969633
0.637959 0.969675
0.637999 0.969707
0.63804 0.969733
0.638081 0.96976
0.638121 0.969786
0.638162 0.969812
0.638203 0.969835
0.638244 0.969857
0.638284 0.969875
0.638325 0.969891
0.638366 0.969902
0.638407 0.969908
0.638447 0.969909
0.638488 0.969907
0.638529 0.969904
0.63857 0.9699
0.63861 0.969894
0.638651 0.969887
0.638692 0.969878
0.638733 0.969869
0.638774 0.969859
0.638814 0.969847
0.638855 0.969835
0.638896 0.969823
0.638937 0.96981
0.638978 0.969796
0.639018 0.969782
0.639059 0.969764
0.6391 0.969743
0.639141 0.969718
0.639182 0.969689
0.639223 0.969657
0.639264 0.969622
0.639304 0.969583
0.639345 0.969542
0.639386 0.96949
0.639427 0.969422
0.639468 0.969342
0.639509 0.969249
0.63955 0.969147
0.639591 0.969037
0.639632 0.96892
0.639672 0.968799
0.639713 0.968675
0.639754 0.968551
0.639795 0.968427
0.639836 0.968307
0.639877 0.96819
0.639918 0.968081
0.639959 0.967979
0.64 0.967887
0.640041 0.967799
0.640082 0.96771
0.640123 0.967624
0.640164 0.967545
0.640205 0.967477
0.640246 0.967425
0.640287 0.967386
0.640328 0.96735
0.640369 0.967319
0.64041 0.967291
0.640451 0.967265
0.640492 0.967242
0.640533 0.96722
0.640574 0.9672
0.640615 0.967181
0.640656 0.967163
0.640697 0.967144
0.640738 0.967126
0.640779 0.967106
0.64082 0.967086
0.640861 0.967063
0.640902 0.967039
0.640943 0.967012
0.640985 0.966983
0.641026 0.96695
0.641067 0.966912
0.641108 0.96687
0.641149 0.966824
0.64119 0.966773
0.641231 0.966712
0.641272 0.966644
0.641313 0.966569
0.641355 0.966488
0.641396 0.966403
0.641437 0.966315
0.641478 0.966224
0.641519 0.966132
0.64156 0.96604
0.641601 0.96595
0.641643 0.965862
0.641684 0.965777
0.641725 0.965697
0.641766 0.965623
0.641807 0.965555
0.641849 0.965496
0.64189 0.965445
0.641931 0.965405
0.641972 0.965376
0.642013 0.96536
0.642055 0.96535
0.642096 0.965355
0.642137 0.96538
0.642178 0.965424
0.64222 0.965486
0.642261 0.965564
0.642302 0.965657
0.642343 0.965763
0.642385 0.965881
0.642426 0.966009
0.642467 0.966146
0.642508 0.966291
0.64255 0.966442
0.642591 0.966597
0.642632 0.966756
0.642674 0.966916
0.642715 0.967077
0.642756 0.967236
0.642797 0.967393
0.642839 0.967545
0.64288 0.967692
0.642921 0.967832
0.642963 0.967964
0.643004 0.96809
0.643045 0.968216
0.643087 0.968341
0.643128 0.968465
0.64317 0.968587
0.643211 0.968709
0.643252 0.968831
0.643294 0.968952
0.643335 0.969074
0.643376 0.969195
0.643418 0.969318
0.643459 0.969441
0.643501 0.969565
0.643542 0.96969
0.643583 0.969817
0.643625 0.969946
0.643666 0.970076
0.643708 0.970209
0.643749 0.970344
0.643791 0.970482
0.643832 0.970623
0.643874 0.970767
0.643915 0.970917
0.643956 0.971077
0.643998 0.971243
0.644039 0.971411
0.644081 0.971578
0.644122 0.971746
0.644164 0.971915
0.644205 0.972084
0.644247 0.972255
0.644288 0.972427
0.64433 0.972601
0.644371 0.972777
0.644413 0.972955
0.644454 0.973135
0.644496 0.973318
0.644538 0.973504
0.644579 0.973693
0.644621 0.973885
0.644662 0.974081
0.644704 0.974281
0.644745 0.974485
0.644787 0.974693
0.644828 0.974914
0.64487 0.975148
0.644912 0.975391
0.644953 0.975634
0.644995 0.975873
0.645036 0.976107
0.645078 0.976347
0.64512 0.976592
0.645161 0.97684
0.645203 0.97709
0.645245 0.97734
0.645286 0.977589
0.645328 0.977835
0.645369 0.978078
0.645411 0.978315
0.645453 0.978545
0.645494 0.978767
0.645536 0.97898
0.645578 0.979181
0.645619 0.97937
0.645661 0.979545
0.645703 0.979705
0.645745 0.97985
0.645786 0.979984
0.645828 0.980109
0.64587 0.980228
0.645911 0.980344
0.645953 0.980458
0.645995 0.980575
0.646037 0.980693
0.646078 0.980809
0.64612 0.980925
0.646162 0.98104
0.646204 0.981154
0.646245 0.981266
0.646287 0.981378
0.646329 0.981489
0.646371 0.981598
0.646412 0.981707
0.646454 0.981815
0.646496 0.981922
0.646538 0.982028
0.64658 0.982133
0.646621 0.982237
0.646663 0.982341
0.646705 0.982445
0.646747 0.982547
0.646789 0.982648
0.646831 0.982748
0.646872 0.982846
0.646914 0.982942
0.646956 0.983036
0.646998 0.983126
0.64704 0.983219
0.647082 0.98332
0.647124 0.983426
0.647165 0.983533
0.647207 0.983639
0.647249 0.98374
0.647291 0.983835
0.647333 0.983919
0.647375 0.983991
0.647417 0.984046
0.647459 0.984083
0.647501 0.984097
0.647543 0.984094
0.647585 0.984084
0.647626 0.984067
0.647668 0.984044
0.64771 0.984015
0.647752 0.983982
0.647794 0.983944
0.647836 0.983902
0.647878 0.983858
0.64792 0.98381
0.647962 0.983761
0.648004 0.983711
0.648046 0.983647
0.648088 0.983564
0.64813 0.983465
0.648172 0.983354
0.648214 0.983233
0.648256 0.983106
0.648298 0.982976
0.64834 0.982846
0.648382 0.98272
0.648424 0.9826
0.648466 0.982481
0.648508 0.982361
0.64855 0.98224
0.648593 0.982117
0.648635 0.981993
0.648677 0.981867
0.648719 0.98174
0.648761 0.981611
0.648803 0.981481
0.648845 0.981348
0.648887 0.981214
0.648929 0.981077
0.648971 0.980939
0.649013 0.980798
0.649056 0.980652
0.649098 0.980503
0.64914 0.980349
0.649182 0.980193
0.649224 0.980035
0.649266 0.979876
0.649308 0.979716
0.649351 0.979556
0.649393 0.979396
0.649435 0.979234
0.649477 0.979072
0.649519 0.978908
0.649562 0.978744
0.649604 0.978579
0.649646 0.978412
0.649688 0.978245
0.64973 0.978077
0.649773 0.977907
0.649815 0.977736
0.649857 0.977565
0.649899 0.977392
0.649942 0.977218
0.649984 0.977042
0.650026 0.976866
0.650068 0.976689
0.650111 0.976509
0.650153 0.976325
0.650195 0.976136
0.650237 0.975939
0.65028 0.975734
0.650322 0.975523
0.650364 0.975305
0.650407 0.975081
0.650449 0.974854
0.650491 0.974622
0.650533 0.974389
0.650576 0.974153
0.650618 0.973917
0.65066 0.973681
0.650703 0.973446
0.650745 0.973213
0.650787 0.972983
0.65083 0.972757
0.650872 0.972536
0.650915 0.97232
0.650957 0.97211
0.650999 0.971908
0.651042 0.971714
0.651084 0.971529
0.651126 0.971354
0.651169 0.971187
0.651211 0.971025
0.651254 0.970866
0.651296 0.970711
0.651339 0.970559
0.651381 0.97041
0.651423 0.970263
0.651466 0.970118
0.651508 0.969974
0.651551 0.969832
0.651593 0.96969
0.651636 0.969549
0.651678 0.969407
0.651721 0.969265
0.651763 0.969122
0.651806 0.968977
0.651848 0.968831
0.65189 0.968682
0.651933 0.968531
0.651975 0.968377
0.652018 0.968218
0.652061 0.968047
0.652103 0.967867
0.652146 0.967681
0.652188 0.967488
0.652231 0.967291
0.652273 0.96709
0.652316 0.966887
0.652358 0.966681
0.652401 0.966474
0.652443 0.966267
0.652486 0.966062
0.652529 0.965858
0.652571 0.965656
0.652614 0.965459
0.652656 0.965266
0.652699 0.965079
0.652742 0.964899
0.652784 0.964726
0.652827 0.964561
0.652869 0.964406
0.652912 0.964262
0.652955 0.96413
0.652997 0.964021
0.65304 0.963925
0.653083 0.963828
0.653125 0.96373
0.653168 0.963633
0.653211 0.963536
0.653253 0.96344
0.653296 0.963346
0.653339 0.963254
0.653381 0.963166
0.653424 0.963081
0.653467 0.963
0.653509 0.962925
0.653552 0.962855
0.653595 0.962791
0.653637 0.962733
0.65368 0.962683
0.653723 0.962641
0.653766 0.962608
0.653808 0.962584
0.653851 0.962569
0.653894 0.962558
0.653937 0.962549
0.653979 0.962544
0.654022 0.962544
0.654065 0.962547
0.654108 0.962552
0.654151 0.96256
0.654193 0.96257
0.654236 0.962582
0.654279 0.962596
0.654322 0.962613
0.654365 0.96263
0.654407 0.962649
0.65445 0.96267
0.654493 0.962692
0.654536 0.962715
0.654579 0.962739
0.654622 0.962763
0.654664 0.962788
0.654707 0.962814
0.65475 0.96284
0.654793 0.962871
0.654836 0.962909
0.654879 0.962952
0.654922 0.962999
0.654965 0.963048
0.655008 0.963097
0.65505 0.963146
0.655093 0.963195
0.655136 0.963244
0.655179 0.963295
0.655222 0.963347
0.655265 0.9634
0.655308 0.963456
0.655351 0.963515
0.655394 0.963576
0.655437 0.963642
0.65548 0.963711
0.655523 0.963785
0.655566 0.963863
0.655609 0.963948
0.655652 0.964038
0.655695 0.964142
0.655738 0.964265
0.655781 0.964404
0.655824 0.964557
0.655867 0.964722
0.65591 0.964896
0.655953 0.965077
0.655996 0.965262
0.656039 0.965456
0.656082 0.965668
0.656125 0.965896
0.656168 0.966137
0.656211 0.966388
0.656254 0.966649
0.656297 0.966916
0.65634 0.967187
0.656383 0.96746
0.656426 0.967733
0.65647 0.968003
0.656513 0.968269
0.656556 0.9685280000000001
0.656599 0.968785
0.656642 0.969043
0.656685 0.969302
0.656728 0.969562
0.656771 0.969822
0.656814 0.970083
0.656858 0.970343
0.656901 0.970603
0.656944 0.970862
0.656987 0.97112
0.65703 0.971376
0.657073 0.971632
0.657117 0.971886
0.65716 0.97214
0.657203 0.972393
0.657246 0.972646
0.657289 0.9729
0.657333 0.973154
0.657376 0.973408
0.657419 0.973663
0.657462 0.97392
0.657505 0.974179
0.657549 0.974442
0.657592 0.974706
0.657635 0.974972
0.657678 0.975238
0.657722 0.975504
0.657765 0.975769
0.657808 0.976031
0.657851 0.976291
0.657895 0.976547
0.657938 0.976799
0.657981 0.977045
0.658025 0.977287
0.658068 0.977531
0.658111 0.977775
0.658155 0.978016
0.658198 0.978251
0.658241 0.978477
0.658285 0.978691
0.658328 0.97889
0.658371 0.979073
0.658415 0.979246
0.658458 0.979414
0.658501 0.979577
0.658545 0.979735
0.658588 0.979888
0.658631 0.980036
0.658675 0.98018
0.658718 0.980319
0.658762 0.980453
0.658805 0.980582
0.658848 0.980708
0.658892 0.980829
0.658935 0.980946
0.658979 0.981059
0.659022 0.981167
0.659065 0.981265
0.659109 0.981356
0.659152 0.981444
0.659196 0.981532
0.659239 0.981625
0.659283 0.981725
0.659326 0.981832
0.65937 0.981945
0.659413 0.982062
0.659457 0.982183
0.6595 0.982306
0.659544 0.982432
0.659587 0.982557
0.659631 0.982683
0.659674 0.982807
0.659718 0.982928
0.659761 0.983046
0.659805 0.98316
0.659848 0.983269
0.659892 0.983371
0.659935 0.983466
0.659979 0.983553
0.660022 0.983632
0.660066 0.983708
0.66011 0.983774
0.660153 0.983825
0.660197 0.983858
0.66024 0.983887
0.660284 0.983914
0.660328 0.983938
0.660371 0.983959
0.660415 0.983978
0.660458 0.983996
0.660502 0.984012
0.660546 0.984027
0.660589 0.984042
0.660633 0.984056
0.660677 0.98407
0.66072 0.984084
0.660764 0.984098
0.660808 0.984114
0.660851 0.984131
0.660895 0.984149
0.660939 0.98417
0.660982 0.984192
0.661026 0.984217
0.66107 0.984249
0.661113 0.984287
0.661157 0.984329
0.661201 0.984374
0.661244 0.984422
0.661288 0.984472
0.661332 0.984526
0.661376 0.984582
0.661419 0.98464
0.661463 0.9847
0.661507 0.984763
0.661551 0.984827
0.661594 0.984892
0.661638 0.984959
0.661682 0.985027
0.661726 0.985096
0.66177 0.985165
0.661813 0.985235
0.661857 0.985306
0.661901 0.985376
0.661945 0.985447
0.661989 0.985518
0.662032 0.985605
0.662076 0.985697
0.66212 0.985793
0.662164 0.985892
0.662208 0.985995
0.662252 0.9861
0.662296 0.986209
0.662339 0.986321
0.662383 0.986436
0.662427 0.986553
0.662471 0.986673
0.662515 0.986796
0.662559 0.98692
0.662603 0.987047
0.662647 0.987175
0.662691 0.987306
0.662734 0.987438
0.662778 0.987571
0.662822 0.987706
0.662866 0.987841
0.66291 0.987985
0.662954 0.98814
0.662998 0.988296
0.663042 0.988451
0.663086 0.988608
0.66313 0.988768
0.663174 0.988928
0.663218 0.98909
0.663262 0.989253
0.663306 0.989416
0.66335 0.989579
0.663394 0.989741
0.663438 0.989903
0.663482 0.990063
0.663526 0.990222
0.66357 0.990379
0.663614 0.990534
0.663658 0.990685
0.663702 0.990834
0.663746 0.990978
0.66379 0.991119
0.663834 0.991252
0.663878 0.99138
0.663922 0.991508
0.663967 0.991637
0.664011 0.991772
0.664055 0.991909
0.664099 0.992047
0.664143 0.992187
0.664187 0.992327
0.664231 0.992468
0.664275 0.992611
0.664319 0.992755
0.664364 0.992901
0.664408 0.993048
0.664452 0.993197
0.664496 0.993347
0.66454 0.9935
0.664584 0.993654
0.664628 0.993811
0.664673 0.99397
0.664717 0.994134
0.664761 0.994303
0.664805 0.994476
0.664849 0.994652
0.664894 0.994829
0.664938 0.995005
0.664982 0.99518
0.665026 0.995353
0.66507 0.995529
0.665115 0.995708
0.665159 0.995888
0.665203 0.99607
0.665247 0.99625
0.665292 0.996429
0.665336 0.996606
0.66538 0.996778
0.665425 0.996944
0.665469 0.997105
0.665513 0.997258
0.665557 0.997402
0.665602 0.997536
0.665646 0.997665
0.66569 0.997789
0.665735 0.997908
0.665779 0.998023
0.665823 0.998134
0.665868 0.998242
0.665912 0.998348
0.665956 0.998451
0.666001 0.998554
0.666045 0.998657
0.666089 0.998762
0.666134 0.998868
0.666178 0.998972
0.666223 0.999073
0.666267 0.999171
0.666311 0.999263
0.666356 0.999349
0.6664 0.999426
0.666445 0.999495
0.666489 0.999553
0.666533 0.999609
0.666578 0.999665
0.666622 0.99972
0.666667 0.999772
0.666711 0.999822
0.666756 0.999868
0.6668 0.999908
0.666844 0.999942
0.666889 0.99997
0.666933 0.999989
0.666978 0.999999
0.667022 0.999999
0.667067 0.999991
0.667111 0.999975
0.667156 0.999954
0.6672 0.999929
0.667245 0.999901
0.667289 0.999872
0.667334 0.999842
0.667379 0.999814
0.667423 0.999783
0.667468 0.999747
0.667512 0.999707
0.667557 0.999665
0.667601 0.999619
0.667646 0.999573
0.66769 0.999526
0.667735 0.999479
0.66778 0.999433
0.667824 0.99939
0.667869 0.999349
0.667913 0.999312
0.667958 0.99928
0.668003 0.999254
0.668047 0.999232
0.668092 0.999213
0.668137 0.999197
0.668181 0.999181
0.668226 0.999164
0.668271 0.999145
0.668315 0.999124
0.66836 0.999103
0.668405 0.999083
0.668449 0.999063
0.668494 0.999043
0.668539 0.999022
0.668583 0.999001
0.668628 0.998978
0.668673 0.998954
0.668717 0.998928
0.668762 0.9989
0.668807 0.998871
0.668852 0.998838
0.668896 0.998804
0.668941 0.998766
0.668986 0.998724
0.669031 0.998674
0.669075 0.9986
0.66912 0.998513
0.669165 0.998427
0.66921 0.998347
0.669254 0.998269
0.669299 0.998192
0.669344 0.998114
0.669389 0.998037
0.669434 0.997959
0.669478 0.997882
0.669523 0.997804
0.669568 0.997725
0.669613 0.997646
0.669658 0.997565
0.669703 0.997484
0.669748 0.997402
0.669792 0.997318
0.669837 0.997232
0.669882 0.997144
0.669927 0.997055
0.669972 0.996964
0.670017 0.99687
0.670062 0.996769
0.670107 0.996644
0.670151 0.996498
0.670196 0.996333
0.670241 0.996152
0.670286 0.995958
0.670331 0.995752
0.670376 0.995539
0.670421 0.99532
0.670466 0.995097
0.670511 0.994874
0.670556 0.994653
0.670601 0.994436
0.670646 0.994226
0.670691 0.994026
0.670736 0.993838
0.670781 0.993665
0.670826 0.99351
0.670871 0.993374
0.670916 0.99326
0.670961 0.993172
0.671006 0.993117
0.671051 0.993077
0.671096 0.99304
0.671141 0.993006
0.671186 0.992974
0.671231 0.992943
0.671276 0.992915
0.671321 0.992887
0.671366 0.99286
0.671411 0.992833
0.671456 0.992807
0.671501 0.992779
0.671547 0.992751
0.671592 0.992721
0.671637 0.99269
0.671682 0.992657
0.671727 0.992621
0.671772 0.992582
0.671817 0.99254
0.671862 0.992494
0.671908 0.99244
0.671953 0.99237
0.671998 0.992293
0.672043 0.992212
0.672088 0.992125
0.672133 0.992034
0.672179 0.991938
0.672224 0.991839
0.672269 0.991737
0.672314 0.991632
0.672359 0.991525
0.672405 0.991418
0.67245 0.99131
0.672495 0.991203
0.67254 0.991096
0.672585 0.990991
0.672631 0.990888
0.672676 0.990788
0.672721 0.990691
0.672766 0.990599
0.672812 0.990512
0.672857 0.99043
0.672902 0.99035
0.672948 0.990269
0.672993 0.990184
0.673038 0.990097
0.673083 0.990012
0.673129 0.98993
0.673174 0.989848
0.673219 0.989767
0.673265 0.989684
0.67331 0.989599
0.673355 0.989511
0.673401 0.989418
0.673446 0.98932
0.673491 0.989216
0.673537 0.989104
0.673582 0.988983
0.673627 0.988853
0.673673 0.988712
0.673718 0.988551
0.673764 0.988362
0.673809 0.988145
0.673854 0.987904
0.6739 0.987639
0.673945 0.987353
0.673991 0.987047
0.674036 0.986719
0.674082 0.986361
0.674127 0.985971
0.674172 0.985549
0.674218 0.985095
0.674263 0.984609
0.674309 0.984089
0.674354 0.983536
0.6744 0.982949
0.674445 0.982327
0.674491 0.981671
0.674536 0.98098
0.674582 0.980251
0.674627 0.979427
0.674673 0.978487
0.674718 0.977443
0.674764 0.976307
0.674809 0.97509
0.674855 0.973802
0.6749 0.972455
0.674946 0.97106
0.674992 0.969629
0.675037 0.968151
0.675083 0.966587
0.675128 0.964936
0.675174 0.963196
0.675219 0.961367
0.675265 0.959449
0.675311 0.957439
0.675356 0.955338
0.675402 0.953145
0.675447 0.950858
0.675493 0.94846
0.675539 0.945851
0.675584 0.943037
0.67563 0.940043
0.675676 0.936897
0.675721 0.933625
0.675767 0.930252
0.675813 0.926806
0.675858 0.923314
0.675904 0.9198
0.67595 0.916292
0.675995 0.912817
0.676041 0.909312
0.676087 0.905682
0.676133 0.901963
0.676178 0.898192
0.676224 0.894407
0.67627 0.890646
0.676315 0.886944
0.676361 0.883341
0.676407 0.879836
0.676453 0.876372
0.676498 0.872944
0.676544 0.869548
0.67659 0.866181
0.676636 0.862839
0.676682 0.859519
0.676727 0.856217
0.676773 0.852929
0.676819 0.849651
0.676865 0.84638
0.676911 0.843113
0.676956 0.839845
0.677002 0.836573
0.677048 0.833298
0.677094 0.830023
0.67714 0.826749
0.677186 0.823477
0.677231 0.820208
0.677277 0.816943
0.677323 0.813683
0.677369 0.81043
0.677415 0.807183
0.677461 0.803945
0.677507 0.800716
0.677553 0.797498
0.677599 0.79429
0.677645 0.791095
0.67769 0.787913
0.677736 0.784746
0.677782 0.781594
0.677828 0.778458
0.677874 0.77534
0.67792 0.77224
0.677966 0.76916
0.678012 0.766102
0.678058 0.76314
0.678104 0.760268
0.67815 0.757419
0.678196 0.754591
0.678242 0.751783
0.678288 0.748994
0.678334 0.746223
0.67838 0.743467
0.678426 0.740727
0.678472 0.738
0.678518 0.735285
0.678564 0.732582
0.67861 0.729888
0.678656 0.727202
0.678702 0.724524
0.678748 0.721851
0.678794 0.719183
0.678841 0.716517
0.678887 0.713854
0.678933 0.711191
0.678979 0.708527
0.679025 0.705866
0.679071 0.703226
0.679117 0.700608
0.679163 0.698009
0.679209 0.695427
0.679256 0.692858
0.679302 0.6903
0.679348 0.687749
0.679394 0.685203
0.67944 0.682659
0.679486 0.680113
0.679532 0.677564
0.679579 0.675009
0.679625 0.672443
0.679671 0.669865
0.679717 0.667271
0.679763 0.664659
0.67981 0.662026
0.679856 0.659368
0.679902 0.656684
0.679948 0.653969
0.679995 0.651222
0.680041 0.648445
0.680087 0.645651
0.680133 0.642838
0.68018 0.640006
0.680226 0.637154
0.680272 0.634284
0.680318 0.631393
0.680365 0.628482
0.680411 0.62555
0.680457 0.622598
0.680504 0.619625
0.68055 0.61663
0.680596 0.613613
0.680643 0.610574
0.680689 0.607513
0.680735 0.604429
0.680782 0.601323
0.680828 0.598184
0.680874 0.594978
0.680921 0.591709
0.680967 0.588389
0.681013 0.585028
0.68106 0.581643
0.681106 0.578238
0.681153 0.574814
0.681199 0.571371
0.681245 0.56791
0.681292 0.564431
0.681338 0.560935
0.681385 0.557422
0.681431 0.553893
0.681477 0.550349
0.681524 0.546789
0.68157 0.543214
0.681617 0.539625
0.681663 0.536022
0.68171 0.532406
0.681756 0.528778
0.681803 0.525137
0.681849 0.521484
0.681896 0.51782
0.681942 0.514145
0.681989 0.510461
0.682035 0.506761
0.682082 0.503038
0.682128 0.499291
0.682175 0.495523
0.682221 0.491735
0.682268 0.487928
0.682314 0.484106
0.682361 0.480268
0.682408 0.476416
0.682454 0.472553
0.682501 0.46868
0.682547 0.464799
0.682594 0.46091
0.68264 0.457017
0.682687 0.45312
0.682734 0.449221
0.68278 0.445322
0.682827 0.441424
0.682874 0.43753
0.68292 0.43364
0.682967 0.429756
0.683013 0.425885
0.68306 0.421956
0.683107 0.417915
0.683153 0.41382
0.6832 0.409678
0.683247 0.405493
0.683293 0.401271
0.68334 0.397019
0.683387 0.392741
0.683434 0.388444
0.68348 0.384134
0.683527 0.379815
0.683574 0.375495
0.68362 0.371178
0.683667 0.366871
0.683714 0.362578
0.683761 0.358307
0.683807 0.354062
0.683854 0.34985
0.683901 0.345676
0.683948 0.341547
0.683995 0.337467
0.684041 0.333417
0.684088 0.329362
0.684135 0.325308
0.684182 0.32126
0.684229 0.317222
0.684275 0.313199
0.684322 0.309198
0.684369 0.305222
0.684416 0.301277
0.684463 0.297369
0.68451 0.293502
0.684556 0.289682
0.684603 0.285913
0.68465 0.282202
0.684697 0.278552
0.684744 0.27497
0.684791 0.271468
0.684838 0.268069
0.684885 0.264758
0.684932 0.261519
0.684978 0.258335
0.685025 0.255187
0.685072 0.252049
0.685119 0.248921
0.685166 0.245805
0.685213 0.242702
0.68526 0.239613
0.685307 0.236541
0.685354 0.233487
0.685401 0.230452
0.685448 0.227439
0.685495 0.224449
0.685542 0.221484
0.685589 0.218545
0.685636 0.215634
0.685683 0.212753
0.68573 0.209904
0.685777 0.207087
0.685824 0.204306
0.685871 0.201561
0.685918 0.198854
0.685965 0.196187
0.686012 0.193561
0.686059 0.190975
0.686106 0.188428
0.686153 0.185922
0.686201 0.183458
0.686248 0.181036
0.686295 0.17866
0.686342 0.176329
0.686389 0.174045
0.686436 0.17181
0.686483 0.169623
0.68653 0.167484
0.686577 0.165388
0.686625 0.163332
0.686672 0.161314
0.686719 0.159329
0.686766 0.157376
0.686813 0.15545
0.68686 0.15355
0.686908 0.151672
0.686955 0.149814
0.687002 0.147971
0.687049 0.146153
0.687096 0.144366
0.687144 0.142607
0.687191 0.140873
0.687238 0.13916
0.687285 0.137468
0.687332 0.135791
0.68738 0.134129
0.687427 0.132476
0.687474 0.130832
0.687521 0.129193
0.687569 0.127556
0.687616 0.125917
0.687663 0.124275
0.687711 0.122627
0.687758 0.120969
0.687805 0.119298
0.687853 0.117613
0.6879 0.115909
0.687947 0.114184
0.687994 0.112434
0.688042 0.110664
0.688089 0.108873
0.688137 0.107055
0.688184 0.1052
0.688231 0.103297
0.688279 0.101345
0.688326 0.09935
0.688373 0.097319
0.688421 0.095261
0.688468 0.093182
0.688516 0.091089
0.688563 0.088991
0.68861 0.086895
0.688658 0.084808
0.688705 0.082737
0.688753 0.08069
0.6888 0.078674
0.688848 0.076698
0.688895 0.074767
0.688942 0.072891
0.68899 0.071076
0.689037 0.069321
0.689085 0.067625
0.689132 0.066012
0.68918 0.064508
0.689227 0.063067
0.689275 0.061652
0.689322 0.060262
0.68937 0.058898
0.689417 0.057559
0.689465 0.056245
0.689513 0.054955
0.68956 0.05369
0.689608 0.052449
0.689655 0.051232
0.689703 0.050038
0.68975 0.048868
0.689798 0.047721
0.689845 0.046597
0.689893 0.045495
0.689941 0.044415
0.689988 0.043358
0.690036 0.042336
0.690084 0.04138
0.690131 0.040489
0.690179 0.039639
0.690226 0.0388
0.690274 0.037975
0.690322 0.037161
0.690369 0.03636
0.690417 0.035572
0.690465 0.034797
0.690512 0.034034
0.69056 0.033284
0.690608 0.032547
0.690655 0.031824
0.690703 0.031113
0.690751 0.030416
0.690799 0.029733
0.690846 0.029062
0.690894 0.028406
0.690942 0.027763
0.690989 0.027133
0.691037 0.026531
0.691085 0.025981
0.691133 0.025467
0.691181 0.02496
0.691228 0.02446
0.691276 0.023968
0.691324 0.023482
0.691372 0.023004
0.691419 0.022533
0.691467 0.02207
0.691515 0.021613
0.691563 0.021163
0.691611 0.020721
0.691659 0.020285
0.691706 0.019857
0.691754 0.019436
0.691802 0.019021
0.69185 0.018614
0.691898 0.018214
0.691946 0.01782
0.691994 0.017434
0.692042 0.017071
0.692089 0.016744
0.692137 0.01642
0.692185 0.0161
0.692233 0.015783
0.692281 0.01547
0.692329 0.015161
0.692377 0.014855
0.692425 0.014553
0.692473 0.014255
0.692521 0.013962
0.692569 0.013673
0.692617 0.013388
0.692665 0.013109
0.692713 0.012834
0.692761 0.012564
0.692809 0.012299
0.692857 0.01204
0.692905 0.011786
0.692953 0.011537
0.693001 0.011295
0.693049 0.011087
0.693097 0.010887
0.693145 0.010689
0.693193 0.010493
0.693241 0.0103
0.693289 0.01011
0.693337 0.009922
0.693385 0.009737
0.693433 0.009555
0.693481 0.009375
0.693529 0.009197
0.693577 0.009022
0.693626 0.00885
0.693674 0.008681
0.693722 0.008514
0.69377 0.00835
0.693818 0.008188
0.693866 0.008029
0.693914 0.007873
0.693963 0.007719
0.694011 0.007573
0.694059 0.007443
0.694107 0.007315
0.694155 0.007188
0.694203 0.007063
0.694252 0.006939
0.6943 0.006816
0.694348 0.006695
0.694396 0.006576
0.694444 0.006458
0.694493 0.006341
0.694541 0.006226
0.694589 0.006112
0.694637 0.006
0.694686 0.00589
0.694734 0.005781
0.694782 0.005673
0.69483 0.005568
0.694879 0.005463
0.694927 0.005361
0.694975 0.00526
0.695024 0.005168
0.695072 0.005081
0.69512 0.004995
0.695169 0.00491
0.695217 0.004825
0.695265 0.004742
0.695314 0.004659
0.695362 0.004578
0.69541 0.004497
0.695459 0.004417
0.695507 0.004338
0.695555 0.00426
0.695604 0.004184
0.695652 0.004108
0.695701 0.004034
0.695749 0.00396
0.695797 0.003888
0.695846 0.003817
0.695894 0.003747
0.695943 0.003679
0.695991 0.003612
0.69604 0.003554
0.696088 0.003496
0.696136 0.003439
0.696185 0.003383
0.696233 0.003327
0.696282 0.003272
0.69633 0.003217
0.696379 0.003164
0.696427 0.00311
0.696476 0.003058
0.696524 0.003006
0.696573 0.002955
0.696621 0.002904
0.69667 0.002855
0.696718 0.002805
0.696767 0.002757
0.696816 0.00271
0.696864 0.002663
0.696913 0.002617
0.696961 0.002571
0.69701 0.00253
0.697058 0.002491
0.697107 0.002453
0.697156 0.002415
0.697204 0.002377
0.697253 0.00234
0.697301 0.002304
0.69735 0.002268
0.697399 0.002232
0.697447 0.002197
0.697496 0.002162
0.697545 0.002127
0.697593 0.002093
0.697642 0.002059
0.697691 0.002026
# -------------------
# GOES18_ABI Band CH086
# -------------------
0.829531 0.002039
0.8296 0.002086
0.829669 0.002134
0.829738 0.002182
0.829807 0.002231
0.829876 0.002281
0.829944 0.002331
0.830013 0.002381
0.830082 0.002434
0.830151 0.002491
0.83022 0.002548
0.830289 0.002606
0.830358 0.002665
0.830427 0.002724
0.830496 0.002785
0.830565 0.002847
0.830634 0.00291
0.830703 0.002974
0.830772 0.003039
0.830841 0.003105
0.83091 0.003172
0.830979 0.003241
0.831048 0.003312
0.831117 0.003392
0.831186 0.003475
0.831255 0.00356
0.831324 0.003646
0.831393 0.003735
0.831463 0.003826
0.831532 0.003918
0.831601 0.004013
0.83167 0.004109
0.831739 0.004207
0.831808 0.004307
0.831878 0.004408
0.831947 0.004512
0.832016 0.004617
0.832085 0.004736
0.832154 0.004861
0.832224 0.00499
0.832293 0.005122
0.832362 0.005258
0.832432 0.005396
0.832501 0.005538
0.83257 0.005683
0.832639 0.005831
0.832709 0.005981
0.832778 0.006135
0.832848 0.006291
0.832917 0.00645
0.832986 0.006612
0.833056 0.006788
0.833125 0.006983
0.833194 0.007183
0.833264 0.00739
0.833333 0.007601
0.833403 0.007818
0.833472 0.00804
0.833542 0.008267
0.833611 0.008498
0.833681 0.008734
0.83375 0.008974
0.83382 0.009219
0.833889 0.009467
0.833959 0.009718
0.834028 0.00998
0.834098 0.010278
0.834168 0.010583
0.834237 0.010895
0.834307 0.011215
0.834376 0.011542
0.834446 0.011876
0.834516 0.012217
0.834585 0.012565
0.834655 0.01292
0.834725 0.013282
0.834794 0.013651
0.834864 0.014026
0.834934 0.014408
0.835003 0.014796
0.835073 0.015224
0.835143 0.01569
0.835213 0.01617
0.835282 0.016662
0.835352 0.017168
0.835422 0.017685
0.835492 0.018216
0.835561 0.018758
0.835631 0.019311
0.835701 0.019877
0.835771 0.020453
0.835841 0.02104
0.835911 0.021638
0.835981 0.022247
0.83605 0.022879
0.83612 0.023574
0.83619 0.024317
0.83626 0.025082
0.83633 0.025869
0.8364 0.026677
0.83647 0.027506
0.83654 0.028355
0.83661 0.029224
0.83668 0.030113
0.83675 0.03102
0.83682 0.031945
0.83689 0.032889
0.83696 0.033849
0.83703 0.034832
0.8371 0.035878
0.83717 0.037006
0.83724 0.038195
0.837311 0.03942
0.837381 0.040682
0.837451 0.041978
0.837521 0.043308
0.837591 0.044671
0.837661 0.046066
0.837731 0.047492
0.837802 0.048948
0.837872 0.050434
0.837942 0.051947
0.838012 0.053489
0.838082 0.055093
0.838153 0.056795
0.838223 0.058612
0.838293 0.060539
0.838364 0.062557
0.838434 0.064653
0.838504 0.066819
0.838574 0.069042
0.838645 0.071314
0.838715 0.073623
0.838785 0.075959
0.838856 0.078311
0.838926 0.08067
0.838997 0.083024
0.839067 0.085412
0.839137 0.087867
0.839208 0.090348
0.839278 0.092816
0.839349 0.095258
0.839419 0.097688
0.83949 0.10011
0.83956 0.102532
0.839631 0.104958
0.839701 0.107394
0.839772 0.109847
0.839842 0.112322
0.839913 0.114824
0.839983 0.117361
0.840054 0.119931
0.840124 0.122524
0.840195 0.125138
0.840266 0.127776
0.840336 0.130438
0.840407 0.133125
0.840477 0.135838
0.840548 0.138577
0.840619 0.141343
0.840689 0.144137
0.84076 0.146967
0.840831 0.149844
0.840901 0.152773
0.840972 0.155757
0.841043 0.158794
0.841114 0.161858
0.841184 0.164946
0.841255 0.168061
0.841326 0.171202
0.841397 0.17437
0.841468 0.177566
0.841538 0.18079
0.841609 0.184045
0.84168 0.187329
0.841751 0.190644
0.841822 0.193991
0.841893 0.197371
0.841963 0.200783
0.842034 0.204235
0.842105 0.207758
0.842176 0.211361
0.842247 0.215042
0.842318 0.218805
0.842389 0.222628
0.84246 0.226503
0.842531 0.230428
0.842602 0.234405
0.842673 0.238433
0.842744 0.242512
0.842815 0.246641
0.842886 0.250822
0.842957 0.255052
0.843028 0.259335
0.843099 0.263684
0.84317 0.268095
0.843241 0.272566
0.843313 0.277089
0.843384 0.28166
0.843455 0.286274
0.843526 0.290924
0.843597 0.295607
0.843668 0.300315
0.843739 0.305045
0.843811 0.30979
0.843882 0.314545
0.843953 0.319319
0.844024 0.324263
0.844096 0.329321
0.844167 0.334437
0.844238 0.339607
0.844309 0.344826
0.844381 0.350089
0.844452 0.355392
0.844523 0.360729
0.844595 0.366098
0.844666 0.371492
0.844737 0.376907
0.844809 0.382338
0.84488 0.387781
0.844951 0.393232
0.845023 0.398687
0.845094 0.40418
0.845166 0.409714
0.845237 0.415283
0.845309 0.42088
0.84538 0.426496
0.845451 0.432126
0.845523 0.43776
0.845594 0.443406
0.845666 0.449074
0.845737 0.454761
0.845809 0.460462
0.845881 0.466171
0.845952 0.471884
0.846024 0.477599
0.846095 0.483338
0.846167 0.489103
0.846238 0.494887
0.84631 0.500685
0.846382 0.50649
0.846453 0.512294
0.846525 0.518091
0.846597 0.523875
0.846668 0.529638
0.84674 0.535375
0.846812 0.541079
0.846883 0.546742
0.846955 0.552358
0.847027 0.557919
0.847099 0.5634
0.84717 0.568811
0.847242 0.574173
0.847314 0.579506
0.847386 0.584815
0.847458 0.590102
0.847529 0.595366
0.847601 0.600609
0.847673 0.605831
0.847745 0.611031
0.847817 0.616212
0.847889 0.621373
0.847961 0.626515
0.848033 0.631638
0.848104 0.636747
0.848176 0.641842
0.848248 0.646921
0.84832 0.651985
0.848392 0.657033
0.848464 0.662064
0.848536 0.667078
0.848608 0.672074
0.84868 0.677052
0.848752 0.68201
0.848824 0.686949
0.848896 0.691869
0.848969 0.696767
0.849041 0.701643
0.849113 0.706313
0.849185 0.710829
0.849257 0.715255
0.849329 0.719608
0.849401 0.723901
0.849473 0.72815
0.849545 0.73237
0.849618 0.736577
0.84969 0.740786
0.849762 0.745011
0.849834 0.749268
0.849907 0.753573
0.849979 0.75794
0.850051 0.762352
0.850123 0.76673
0.850196 0.771083
0.850268 0.775428
0.85034 0.779782
0.850412 0.78416
0.850485 0.788578
0.850557 0.793054
0.850629 0.797602
0.850702 0.80224
0.850774 0.806984
0.850847 0.811849
0.850919 0.816853
0.850991 0.822215
0.851064 0.828113
0.851136 0.834282
0.851209 0.840669
0.851281 0.847226
0.851354 0.853902
0.851426 0.86065
0.851499 0.867418
0.851571 0.874159
0.851644 0.880821
0.851716 0.887357
0.851789 0.893715
0.851861 0.899846
0.851934 0.905701
0.852006 0.911035
0.852079 0.915997
0.852152 0.920935
0.852224 0.925828
0.852297 0.930652
0.85237 0.935385
0.852442 0.940004
0.852515 0.944486
0.852588 0.948808
0.85266 0.952947
0.852733 0.95688
0.852806 0.960585
0.852878 0.964008
0.852951 0.967082
0.853024 0.96984
0.853097 0.972514
0.85317 0.97515
0.853242 0.977717
0.853315 0.980186
0.853388 0.982527
0.853461 0.984712
0.853534 0.986709
0.853606 0.98849
0.853679 0.990024
0.853752 0.991322
0.853825 0.992455
0.853898 0.993447
0.853971 0.994318
0.854044 0.995105
0.854117 0.99588
0.85419 0.996629
0.854263 0.997331
0.854336 0.997964
0.854409 0.998506
0.854482 0.998934
0.854555 0.999227
0.854628 0.999425
0.854701 0.999606
0.854774 0.999762
0.854847 0.999885
0.85492 0.999967
0.854993 1.0
0.855066 0.999982
0.855139 0.999923
0.855213 0.999828
0.855286 0.999704
0.855359 0.999556
0.855432 0.999389
0.855505 0.999098
0.855578 0.998602
0.855652 0.997946
0.855725 0.997177
0.855798 0.996341
0.855871 0.995483
0.855945 0.994651
0.856018 0.993885
0.856091 0.993089
0.856164 0.992262
0.856238 0.991466
0.856311 0.990762
0.856384 0.990134
0.856458 0.989542
0.856531 0.98898
0.856604 0.988443
0.856678 0.987924
0.856751 0.987418
0.856825 0.986919
0.856898 0.98642
0.856971 0.985916
0.857045 0.985408
0.857118 0.984915
0.857192 0.984416
0.857265 0.98391
0.857339 0.983403
0.857412 0.982893
0.857486 0.982382
0.857559 0.981869
0.857633 0.981354
0.857706 0.980838
0.85778 0.98032
0.857854 0.979801
0.857927 0.97928
0.858001 0.978757
0.858074 0.97822
0.858148 0.97766
0.858222 0.977087
0.858295 0.976504
0.858369 0.975913
0.858443 0.975318
0.858516 0.97472
0.85859 0.974123
0.858664 0.97353
0.858738 0.972942
0.858811 0.972364
0.858885 0.971796
0.858959 0.971245
0.859033 0.970714
0.859107 0.970181
0.85918 0.969644
0.859254 0.969107
0.859328 0.968574
0.859402 0.96805
0.859476 0.967539
0.85955 0.967047
0.859623 0.966577
0.859697 0.966135
0.859771 0.965724
0.859845 0.965353
0.859919 0.965017
0.859993 0.964699
0.860067 0.964394
0.860141 0.964108
0.860215 0.963835
0.860289 0.963569
0.860363 0.963303
0.860437 0.963031
0.860511 0.962746
0.860585 0.962444
0.860659 0.962116
0.860733 0.961756
0.860807 0.961367
0.860882 0.960959
0.860956 0.960541
0.86103 0.960121
0.861104 0.959679
0.861178 0.959219
0.861252 0.958752
0.861326 0.958287
0.861401 0.957836
0.861475 0.957409
0.861549 0.957014
0.861623 0.956652
0.861698 0.95631
0.861772 0.955977
0.861846 0.955643
0.86192 0.955297
0.861995 0.954926
0.862069 0.954489
0.862143 0.953984
0.862218 0.953475
0.862292 0.953031
0.862366 0.952719
0.862441 0.952546
0.862515 0.952409
0.862589 0.952297
0.862664 0.952202
0.862738 0.952117
0.862813 0.952035
0.862887 0.951949
0.862962 0.951851
0.863036 0.951739
0.863111 0.951628
0.863185 0.951504
0.86326 0.951347
0.863334 0.951129
0.863409 0.950849
0.863483 0.950517
0.863558 0.950146
0.863632 0.949747
0.863707 0.949332
0.863782 0.948913
0.863856 0.948501
0.863931 0.948109
0.864006 0.947747
0.86408 0.947363
0.864155 0.947177
0.86423 0.947066
0.864304 0.946978
0.864379 0.946907
0.864454 0.94685
0.864528 0.946802
0.864603 0.946758
0.864678 0.946714
0.864753 0.946666
0.864827 0.946609
0.864902 0.946538
0.864977 0.94645
0.865052 0.94631
0.865127 0.946166
0.865202 0.946018
0.865276 0.945865
0.865351 0.945702
0.865426 0.945525
0.865501 0.945331
0.865576 0.945117
0.865651 0.944878
0.865726 0.944611
0.865801 0.944313
0.865876 0.943927
0.865951 0.943334
0.866026 0.942709
0.866101 0.942002
0.866176 0.941205
0.866251 0.940362
0.866326 0.939515
0.866401 0.938707
0.866476 0.937982
0.866551 0.937382
0.866626 0.936951
0.866701 0.936725
0.866776 0.936576
0.866852 0.936453
0.866927 0.93637
0.867002 0.93634
0.867077 0.936358
0.867152 0.936403
0.867227 0.936465
0.867303 0.936532
0.867378 0.936595
0.867453 0.936641
0.867528 0.936661
0.867604 0.936492
0.867679 0.935984
0.867754 0.935241
0.86783 0.934367
0.867905 0.933468
0.86798 0.932648
0.868056 0.931937
0.868131 0.931207
0.868206 0.930472
0.868282 0.929757
0.868357 0.929086
0.868432 0.928472
0.868508 0.927886
0.868583 0.927321
0.868659 0.926776
0.868734 0.92625
0.86881 0.92574
0.868885 0.925245
0.868961 0.924764
0.869036 0.924285
0.869112 0.923792
0.869187 0.923362
0.869263 0.923074
0.869338 0.922844
0.869414 0.922633
0.86949 0.92244
0.869565 0.922267
0.869641 0.922111
0.869716 0.921974
0.869792 0.921855
0.869868 0.921754
0.869943 0.92167
0.870019 0.921603
0.870095 0.921565
0.870171 0.921606
0.870246 0.921708
0.870322 0.921857
0.870398 0.92204
0.870474 0.922244
0.870549 0.922455
0.870625 0.92266
0.870701 0.922845
0.870777 0.922997
0.870853 0.923103
0.870928 0.923148
0.871004 0.923093
0.87108 0.922983
0.871156 0.922835
0.871232 0.922653
0.871308 0.922442
0.871384 0.922208
0.87146 0.921955
0.871536 0.921689
0.871612 0.921414
0.871688 0.921137
0.871764 0.920861
0.87184 0.920577
0.871916 0.920255
0.871992 0.919935
0.872068 0.919615
0.872144 0.919258
0.87222 0.918885
0.872296 0.918519
0.872372 0.91818
0.872448 0.917893
0.872524 0.917678
0.8726 0.917558
0.872676 0.917558
0.872753 0.917682
0.872829 0.917887
0.872905 0.91812
0.872981 0.918332
0.873057 0.918509
0.873134 0.918707
0.87321 0.91891
0.873286 0.919097
0.873362 0.919247
0.873439 0.91934
0.873515 0.919348
0.873591 0.91918
0.873668 0.91885
0.873744 0.918408
0.87382 0.917905
0.873897 0.917388
0.873973 0.916907
0.874049 0.916502
0.874126 0.916133
0.874202 0.915746
0.874279 0.915285
0.874355 0.914693
0.874432 0.913842
0.874508 0.912718
0.874585 0.911365
0.874661 0.909826
0.874738 0.908142
0.874814 0.906357
0.874891 0.904515
0.874967 0.902657
0.875044 0.900775
0.87512 0.898655
0.875197 0.896266
0.875274 0.893656
0.87535 0.890869
0.875427 0.887919
0.875503 0.884819
0.87558 0.881581
0.875657 0.878218
0.875733 0.874744
0.87581 0.871172
0.875887 0.867515
0.875964 0.863785
0.87604 0.859802
0.876117 0.855003
0.876194 0.849877
0.876271 0.844461
0.876347 0.838794
0.876424 0.832914
0.876501 0.826862
0.876578 0.820675
0.876655 0.814392
0.876732 0.808052
0.876808 0.801694
0.876885 0.795358
0.876962 0.788806
0.877039 0.782028
0.877116 0.775034
0.877193 0.767858
0.87727 0.760566
0.877347 0.753226
0.877424 0.745904
0.877501 0.738668
0.877578 0.731584
0.877655 0.724718
0.877732 0.71814
0.877809 0.711914
0.877886 0.706142
0.877963 0.700829
0.87804 0.695781
0.878117 0.690862
0.878194 0.686051
0.878272 0.681338
0.878349 0.676709
0.878426 0.672152
0.878503 0.667656
0.87858 0.663209
0.878657 0.658797
0.878735 0.65441
0.878812 0.650035
0.878889 0.645659
0.878966 0.641271
0.879044 0.636876
0.879121 0.632544
0.879198 0.628269
0.879275 0.624034
0.879353 0.619823
0.87943 0.61562
0.879507 0.611409
0.879585 0.607173
0.879662 0.602895
0.87974 0.59856
0.879817 0.594151
0.879894 0.589621
0.879972 0.585003
0.880049 0.580414
0.880127 0.575845
0.880204 0.571287
0.880282 0.566735
0.880359 0.562185
0.880437 0.557632
0.880514 0.553071
0.880592 0.548498
0.880669 0.543909
0.880747 0.539297
0.880824 0.53466
0.880902 0.529991
0.88098 0.525287
0.881057 0.520551
0.881135 0.515799
0.881213 0.511028
0.88129 0.506235
0.881368 0.501415
0.881446 0.496565
0.881523 0.491681
0.881601 0.486758
0.881679 0.481793
0.881756 0.476782
0.881834 0.47172
0.881912 0.466562
0.88199 0.461273
0.882068 0.455868
0.882145 0.450388
0.882223 0.444843
0.882301 0.439244
0.882379 0.433598
0.882457 0.427917
0.882535 0.422209
0.882613 0.416483
0.88269 0.410749
0.882768 0.405018
0.882846 0.399297
0.882924 0.393597
0.883002 0.387927
0.88308 0.382268
0.883158 0.376604
0.883236 0.370937
0.883314 0.365275
0.883392 0.359623
0.88347 0.353984
0.883548 0.348347
0.883626 0.342704
0.883704 0.337067
0.883783 0.331446
0.883861 0.325853
0.883939 0.3203
0.884017 0.314795
0.884095 0.309303
0.884173 0.303813
0.884251 0.29833
0.88433 0.292864
0.884408 0.287421
0.884486 0.28201
0.884564 0.276639
0.884643 0.271315
0.884721 0.266047
0.884799 0.260841
0.884877 0.255706
0.884956 0.250672
0.885034 0.245865
0.885112 0.241085
0.885191 0.236311
0.885269 0.23155
0.885347 0.226811
0.885426 0.222101
0.885504 0.217429
0.885583 0.212803
0.885661 0.20823
0.88574 0.203721
0.885818 0.199281
0.885897 0.19492
0.885975 0.190646
0.886054 0.186469
0.886132 0.182396
0.886211 0.178428
0.886289 0.174562
0.886368 0.170797
0.886446 0.16712
0.886525 0.163506
0.886603 0.159954
0.886682 0.156468
0.886761 0.153049
0.886839 0.149699
0.886918 0.14642
0.886997 0.143215
0.887075 0.140077
0.887154 0.136992
0.887233 0.13396
0.887311 0.130976
0.88739 0.12804
0.887469 0.125147
0.887548 0.122297
0.887626 0.119485
0.887705 0.11671
0.887784 0.113969
0.887863 0.111261
0.887942 0.108641
0.888021 0.106146
0.888099 0.103718
0.888178 0.101329
0.888257 0.098975
0.888336 0.096652
0.888415 0.094357
0.888494 0.092088
0.888573 0.089839
0.888652 0.087607
0.888731 0.08539
0.88881 0.083183
0.888889 0.080983
0.888968 0.078787
0.889047 0.076602
0.889126 0.074461
0.889205 0.072333
0.889284 0.070179
0.889363 0.068003
0.889442 0.065817
0.889521 0.063634
0.889601 0.061467
0.88968 0.059328
0.889759 0.057231
0.889838 0.055188
0.889917 0.053213
0.889996 0.051317
0.890076 0.049516
0.890155 0.047836
0.890234 0.046289
0.890313 0.044794
0.890393 0.04334
0.890472 0.041926
0.890551 0.040551
0.890631 0.039214
0.89071 0.037913
0.890789 0.036648
0.890869 0.035417
0.890948 0.034219
0.891027 0.033057
0.891107 0.031969
0.891186 0.03095
0.891266 0.029961
0.891345 0.028979
0.891424 0.028008
0.891504 0.027053
0.891583 0.026121
0.891663 0.025216
0.891742 0.024345
0.891822 0.023512
0.891902 0.022722
0.891981 0.021983
0.892061 0.021298
0.89214 0.020686
0.89222 0.020166
0.892299 0.019702
0.892379 0.019272
0.892459 0.01887
0.892538 0.018491
0.892618 0.018125
0.892698 0.017768
0.892777 0.017412
0.892857 0.01705
0.892937 0.016676
0.893017 0.016283
0.893096 0.015894
0.893176 0.015479
0.893256 0.014985
0.893336 0.014399
0.893416 0.013749
0.893495 0.013059
0.893575 0.012355
0.893655 0.011663
0.893735 0.011008
0.893815 0.010416
0.893895 0.009914
0.893975 0.009526
0.894055 0.009242
0.894134 0.009013
0.894214 0.008929
0.894294 0.008907
0.894374 0.00889
0.894454 0.008878
0.894534 0.008868
0.894614 0.008861
0.894694 0.008854
0.894775 0.008848
0.894855 0.00884
0.894935 0.008831
0.895015 0.008818
0.895095 0.008805
0.895175 0.008787
0.895255 0.008754
0.895335 0.008688
0.895415 0.008595
0.895496 0.008478
0.895576 0.008344
0.895656 0.008198
0.895736 0.008043
0.895817 0.007886
0.895897 0.007731
0.895977 0.007583
0.896057 0.007439
0.896138 0.007285
0.896218 0.007136
0.896298 0.006993
0.896379 0.006854
0.896459 0.006717
0.896539 0.006581
0.89662 0.006446
0.8967 0.006309
0.896781 0.006172
0.896861 0.006031
0.896941 0.005886
0.897022 0.005736
0.897102 0.005582
0.897183 0.005416
0.897263 0.005235
0.897344 0.005039
0.897424 0.004833
0.897505 0.004619
0.897585 0.004402
0.897666 0.004183
0.897747 0.003968
0.897827 0.003759
0.897908 0.00356
0.897989 0.003373
0.898069 0.0032
0.89815 0.00304
0.89823 0.002901
0.898311 0.00277
0.898392 0.002644
0.898473 0.002523
0.898553 0.002407
0.898634 0.002296
0.898715 0.002189
0.898796 0.002087
0.901144 0.00201
# -------------------
# GOES18_ABI Band CH138
# -------------------
1.358696 0.002052
1.35888 0.002359
1.359065 0.00268
1.35925 0.002989
1.359434 0.003441
1.359619 0.004013
1.359804 0.004642
1.359989 0.005316
1.360174 0.006073
1.360359 0.007051
1.360544 0.008194
1.360729 0.009434
1.360915 0.011077
1.3611 0.013088
1.361285 0.015246
1.36147 0.017699
1.361656 0.020602
1.361841 0.0242
1.362027 0.028383
1.362212 0.033086
1.362398 0.038536
1.362583 0.045076
1.362769 0.053023
1.362955 0.063084
1.363141 0.076704
1.363327 0.092004
1.363512 0.108598
1.363698 0.126742
1.363884 0.147071
1.36407 0.170383
1.364256 0.196733
1.364443 0.226572
1.364629 0.261819
1.364815 0.307199
1.365001 0.360019
1.365188 0.412417
1.365374 0.462323
1.365561 0.508965
1.365747 0.558118
1.365934 0.608931
1.36612 0.65853
1.366307 0.687573
1.366494 0.709378
1.36668 0.760026
1.366867 0.804766
1.367054 0.831502
1.367241 0.851444
1.367428 0.868782
1.367615 0.884211
1.367802 0.895247
1.367989 0.902805
1.368176 0.910158
1.368363 0.911198
1.368551 0.903173
1.368738 0.91268
1.368925 0.937041
1.369113 0.956569
1.3693 0.960311
1.369488 0.957427
1.369675 0.951359
1.369863 0.950619
1.370051 0.966395
1.370238 0.975502
1.370426 0.97904
1.370614 0.979599
1.370802 0.977566
1.37099 0.971853
1.371178 0.9802
1.371366 0.991222
1.371554 0.996214
1.371742 0.995996
1.37193 0.99546
1.372119 0.995721
1.372307 0.997177
1.372495 0.999997
1.372684 0.99831
1.372872 0.99754
1.373061 0.997862
1.373249 0.996652
1.373438 0.992239
1.373626 0.978913
1.373815 0.978119
1.374004 0.981948
1.374193 0.980863
1.374382 0.978963
1.37457 0.975931
1.374759 0.969118
1.374948 0.962756
1.375138 0.960525
1.375327 0.956426
1.375516 0.949488
1.375705 0.939954
1.375894 0.9338
1.376084 0.930102
1.376273 0.926668
1.376462 0.921514
1.376652 0.912209
1.376842 0.904797
1.377031 0.897296
1.377221 0.887156
1.37741 0.875189
1.3776 0.861443
1.37779 0.847214
1.37798 0.82899
1.37817 0.803634
1.37836 0.773266
1.37855 0.738588
1.37874 0.699658
1.37893 0.660675
1.37912 0.618304
1.37931 0.56578
1.379501 0.508125
1.379691 0.44739
1.379881 0.390312
1.380072 0.336575
1.380262 0.286755
1.380453 0.240816
1.380643 0.199936
1.380834 0.165489
1.381025 0.136781
1.381215 0.112927
1.381406 0.092989
1.381597 0.075829
1.381788 0.06137
1.381979 0.05016
1.38217 0.041606
1.382361 0.034933
1.382552 0.028649
1.382743 0.023211
1.382935 0.019129
1.383126 0.016131
1.383317 0.013701
1.383509 0.011358
1.3837 0.009487
1.383892 0.007984
1.384083 0.006795
1.384275 0.005781
1.384466 0.004895
1.384658 0.004154
1.38485 0.003565
1.385042 0.003122
1.385233 0.002655
1.385425 0.002249
1.385617 0.002025
# -------------------
# GOES18_ABI Band CH161
# -------------------
1.561768 0.002016
1.562012 0.002273
1.562256 0.002611
1.5625 0.002944
1.562744 0.00319
1.562988 0.003395
1.563233 0.0036
1.563477 0.003831
1.563722 0.004163
1.563966 0.004592
1.564211 0.005058
1.564456 0.005532
1.5647 0.00592
1.564945 0.00625
1.56519 0.006585
1.565435 0.006931
1.56568 0.007312
1.565925 0.007746
1.566171 0.008229
1.566416 0.008778
1.566661 0.009477
1.566907 0.010377
1.567152 0.011358
1.567398 0.012431
1.567644 0.013464
1.56789 0.014441
1.568135 0.01545
1.568381 0.016493
1.568627 0.01755
1.568874 0.018614
1.56912 0.019756
1.569366 0.020987
1.569612 0.022395
1.569859 0.024271
1.570105 0.026555
1.570352 0.029156
1.570598 0.031909
1.570845 0.034684
1.571092 0.037616
1.571339 0.040745
1.571586 0.044084
1.571833 0.047694
1.57208 0.051805
1.572327 0.056325
1.572574 0.061214
1.572822 0.066437
1.573069 0.072541
1.573317 0.079288
1.573564 0.086265
1.573812 0.092889
1.574059 0.098626
1.574307 0.103917
1.574555 0.109027
1.574803 0.11412
1.575051 0.119216
1.575299 0.124331
1.575548 0.129433
1.575796 0.134648
1.576044 0.140149
1.576293 0.145701
1.576541 0.151276
1.57679 0.156959
1.577038 0.162752
1.577287 0.168708
1.577536 0.174764
1.577785 0.180962
1.578034 0.187358
1.578283 0.194058
1.578532 0.201076
1.578781 0.208335
1.57903 0.215849
1.57928 0.223696
1.579529 0.231778
1.579779 0.240058
1.580028 0.248528
1.580278 0.257185
1.580528 0.266005
1.580778 0.27502
1.581028 0.284328
1.581278 0.294097
1.581528 0.304113
1.581778 0.314344
1.582028 0.324661
1.582278 0.335155
1.582529 0.345773
1.582779 0.356498
1.58303 0.367177
1.583281 0.377856
1.583531 0.388686
1.583782 0.399584
1.584033 0.41057
1.584284 0.421659
1.584535 0.432831
1.584786 0.444032
1.585037 0.455202
1.585289 0.466351
1.58554 0.477482
1.585791 0.488553
1.586043 0.499599
1.586294 0.510707
1.586546 0.521833
1.586798 0.532924
1.58705 0.543939
1.587302 0.554849
1.587554 0.565696
1.587806 0.57652
1.588058 0.587312
1.58831 0.598082
1.588562 0.608916
1.588815 0.619759
1.589067 0.630611
1.58932 0.641499
1.589572 0.65241
1.589825 0.663159
1.590078 0.67369
1.590331 0.683999
1.590584 0.694177
1.590837 0.704188
1.59109 0.713639
1.591343 0.721711
1.591596 0.72946
1.59185 0.737147
1.592103 0.744953
1.592357 0.752552
1.59261 0.760401
1.592864 0.769075
1.593118 0.778802
1.593372 0.790396
1.593625 0.804096
1.59388 0.826638
1.594134 0.853493
1.594388 0.881638
1.594642 0.903082
1.594896 0.921775
1.595151 0.937681
1.595405 0.950417
1.59566 0.961353
1.595914 0.970798
1.596169 0.977422
1.596424 0.982945
1.596679 0.987548
1.596934 0.990915
1.597189 0.99353
1.597444 0.995656
1.597699 0.997067
1.597955 0.998152
1.59821 0.998804
1.598465 0.999102
1.598721 0.999311
1.598977 0.99948
1.599232 0.999648
1.599488 0.999833
1.599744 0.999996
1.6 0.999806
1.600256 0.999495
1.600512 0.999123
1.600768 0.998625
1.601025 0.99815
1.601281 0.997802
1.601537 0.997714
1.601794 0.997684
1.602051 0.997592
1.602307 0.997045
1.602564 0.9963
1.602821 0.995597
1.603078 0.995302
1.603335 0.995019
1.603592 0.994685
1.603849 0.994192
1.604107 0.993695
1.604364 0.993246
1.604621 0.992801
1.604879 0.992357
1.605136 0.991901
1.605394 0.991463
1.605652 0.991046
1.60591 0.990652
1.606168 0.990201
1.606426 0.989628
1.606684 0.989132
1.606942 0.988818
1.6072 0.988544
1.607459 0.988235
1.607717 0.987788
1.607976 0.987237
1.608234 0.986351
1.608493 0.984855
1.608752 0.982987
1.60901 0.981119
1.609269 0.979116
1.609528 0.977198
1.609788 0.975636
1.610047 0.974184
1.610306 0.972567
1.610565 0.970386
1.610825 0.967957
1.611084 0.965934
1.611344 0.964343
1.611604 0.962772
1.611863 0.961066
1.612123 0.959472
1.612383 0.958161
1.612643 0.957324
1.612903 0.956663
1.613163 0.956315
1.613424 0.956117
1.613684 0.956043
1.613944 0.956255
1.614205 0.956882
1.614466 0.957818
1.614726 0.959161
1.614987 0.960659
1.615248 0.962325
1.615509 0.96412
1.61577 0.965943
1.616031 0.967671
1.616292 0.969258
1.616554 0.970519
1.616815 0.9715
1.617076 0.972181
1.617338 0.972128
1.617599 0.9714
1.617861 0.970064
1.618123 0.967222
1.618385 0.962922
1.618647 0.95748
1.618909 0.950786
1.619171 0.942864
1.619433 0.933339
1.619695 0.922611
1.619958 0.910568
1.62022 0.895702
1.620483 0.879193
1.620746 0.859683
1.621008 0.838676
1.621271 0.820664
1.621534 0.807703
1.621797 0.796798
1.62206 0.786966
1.622323 0.77802
1.622586 0.769485
1.62285 0.761292
1.623113 0.752823
1.623377 0.744456
1.62364 0.736271
1.623904 0.728242
1.624168 0.720422
1.624431 0.712775
1.624695 0.705173
1.624959 0.697592
1.625223 0.689911
1.625488 0.682148
1.625752 0.674242
1.626016 0.666122
1.626281 0.65802
1.626545 0.649894
1.62681 0.64171
1.627075 0.633456
1.627339 0.625102
1.627604 0.616695
1.627869 0.608236
1.628134 0.599703
1.628399 0.591164
1.628664 0.58279
1.62893 0.574482
1.629195 0.56627
1.629461 0.558197
1.629726 0.549985
1.629992 0.54158
1.630258 0.532802
1.630523 0.523814
1.630789 0.514572
1.631055 0.504758
1.631321 0.493877
1.631588 0.482555
1.631854 0.470991
1.63212 0.459145
1.632387 0.44692
1.632653 0.434486
1.63292 0.422163
1.633186 0.409884
1.633453 0.397309
1.63372 0.384714
1.633987 0.37229
1.634254 0.360095
1.634521 0.348068
1.634788 0.336236
1.635056 0.324986
1.635323 0.314137
1.63559 0.303467
1.635858 0.292915
1.636126 0.282521
1.636393 0.272282
1.636661 0.262152
1.636929 0.252036
1.637197 0.241969
1.637465 0.231989
1.637733 0.222097
1.638002 0.212477
1.63827 0.203262
1.638538 0.194357
1.638807 0.185878
1.639076 0.177805
1.639344 0.169992
1.639613 0.162393
1.639882 0.154958
1.640151 0.147744
1.64042 0.140747
1.640689 0.13417
1.640958 0.127914
1.641228 0.121929
1.641497 0.116027
1.641767 0.110029
1.642036 0.103677
1.642306 0.096285
1.642576 0.087521
1.642845 0.078291
1.643115 0.069779
1.643385 0.062667
1.643655 0.056138
1.643926 0.050142
1.644196 0.045141
1.644466 0.040764
1.644737 0.036686
1.645007 0.032927
1.645278 0.029726
1.645549 0.026663
1.64582 0.023789
1.646091 0.021284
1.646362 0.019069
1.646633 0.016987
1.646904 0.015226
1.647175 0.013914
1.647446 0.012771
1.647718 0.011672
1.647989 0.010577
1.648261 0.009532
1.648533 0.008579
1.648805 0.007759
1.649077 0.007193
1.649349 0.006717
1.649621 0.006248
1.649893 0.00566
1.650165 0.004907
1.650437 0.004228
1.65071 0.003789
1.650982 0.003775
1.651255 0.00378
1.651528 0.003785
1.6518 0.003774
1.652073 0.003521
1.652346 0.003073
1.652619 0.00273
1.652893 0.002636
1.653166 0.002622
1.653439 0.002611
1.653713 0.002592
1.653986 0.002428
1.65426 0.002121
# -------------------
# GOES18_ABI Band CH225
# -------------------
2.196354 0.00202
2.196837 0.002495
2.197319 0.002721
2.197802 0.002805
2.198285 0.003025
2.198769 0.003721
2.199252 0.004191
2.199736 0.004363
2.20022 0.004589
2.200704 0.004941
2.201189 0.005446
2.201673 0.006227
2.202158 0.007194
2.202643 0.008324
2.203128 0.009482
2.203614 0.010484
2.2041 0.011565
2.204586 0.012952
2.205072 0.014516
2.205558 0.016062
2.206045 0.017833
2.206531 0.020623
2.207018 0.023956
2.207506 0.027502
2.207993 0.03141
2.208481 0.035863
2.208968 0.040998
2.209456 0.047293
2.209945 0.054747
2.210433 0.062929
2.210922 0.071889
2.211411 0.082418
2.2119 0.094564
2.212389 0.108181
2.212879 0.123767
2.213369 0.141486
2.213859 0.16162
2.214349 0.184184
2.214839 0.209573
2.21533 0.238284
2.215821 0.270623
2.216312 0.306158
2.216803 0.345568
2.217295 0.386825
2.217787 0.429849
2.218279 0.475513
2.218771 0.524004
2.219263 0.573555
2.219756 0.62376
2.220249 0.672195
2.220742 0.717564
2.221235 0.760824
2.221729 0.801975
2.222222 0.837237
2.222716 0.868132
2.22321 0.893772
2.223705 0.913588
2.224199 0.929158
2.224694 0.940982
2.225189 0.949492
2.225684 0.954755
2.22618 0.958034
2.226676 0.960112
2.227171 0.960869
2.227668 0.96128
2.228164 0.961496
2.228661 0.961033
2.229157 0.960606
2.229654 0.961138
2.230152 0.961646
2.230649 0.96189
2.231147 0.963073
2.231645 0.964465
2.232143 0.965874
2.232641 0.966727
2.23314 0.967861
2.233639 0.969243
2.234138 0.971873
2.234637 0.975173
2.235136 0.977664
2.235636 0.979567
2.236136 0.981634
2.236636 0.984292
2.237136 0.98733
2.237637 0.991005
2.238138 0.993772
2.238639 0.996255
2.23914 0.998511
2.239642 0.999477
2.240143 0.999958
2.240645 0.999997
2.241147 0.999659
2.24165 0.998558
2.242152 0.998157
2.242655 0.998238
2.243158 0.997526
2.243662 0.996282
2.244165 0.994955
2.244669 0.993193
2.245173 0.990917
2.245677 0.988041
2.246181 0.985708
2.246686 0.983994
2.247191 0.982888
2.247696 0.981223
2.248201 0.978959
2.248707 0.97634
2.249213 0.973734
2.249719 0.971198
2.250225 0.968329
2.250731 0.964514
2.251238 0.96079
2.251745 0.957375
2.252252 0.95453
2.25276 0.952537
2.253267 0.950216
2.253775 0.94707
2.254283 0.945068
2.254791 0.943137
2.2553 0.939848
2.255809 0.936643
2.256318 0.93374
2.256827 0.92953
2.257336 0.924385
2.257846 0.918038
2.258356 0.909409
2.258866 0.898433
2.259376 0.884015
2.259887 0.865222
2.260398 0.842084
2.260909 0.813894
2.26142 0.782062
2.261932 0.746241
2.262443 0.70597
2.262955 0.662055
2.263468 0.614107
2.26398 0.56357
2.264493 0.513679
2.265006 0.463886
2.265519 0.413509
2.266032 0.363803
2.266546 0.3185
2.26706 0.275938
2.267574 0.238912
2.268088 0.205562
2.268603 0.176176
2.269117 0.150354
2.269632 0.12812
2.270148 0.108687
2.270663 0.09228
2.271179 0.078261
2.271695 0.066812
2.272211 0.056934
2.272727 0.04847
2.273244 0.041375
2.273761 0.035409
2.274278 0.030365
2.274795 0.026104
2.275313 0.022486
2.275831 0.019414
2.276349 0.016859
2.276867 0.014676
2.277386 0.012911
2.277904 0.011417
2.278423 0.010135
2.278943 0.009007
2.279462 0.0079
2.279982 0.006851
2.280502 0.005948
2.281022 0.005157
2.281542 0.0047
2.282063 0.00431
2.282584 0.003841
2.283105 0.003389
2.283626 0.003035
2.284148 0.002664
2.28467 0.002049
# -------------------
