# GOES19_ABI RSR
# QV 2025-06-04 from ABI-16-047_FM4_Spectral_Response_Curves.xlsx
# filtered to response > 0.002
# VSWIR bands
# GOES19_ABI Band CH047
# -------------------
0.442772 0.002024
0.442791 0.002064
0.442811 0.002104
0.442831 0.002146
0.44285 0.002189
0.44287 0.002233
0.442889 0.002279
0.442909 0.002325
0.442929 0.002373
0.442948 0.002422
0.442968 0.002472
0.442988 0.002524
0.443007 0.002576
0.443027 0.00263
0.443046 0.002685
0.443066 0.002742
0.443086 0.002799
0.443105 0.002858
0.443125 0.002918
0.443145 0.002979
0.443164 0.003042
0.443184 0.003105
0.443203 0.00317
0.443223 0.003236
0.443243 0.003303
0.443262 0.003371
0.443282 0.003441
0.443302 0.003511
0.443321 0.003582
0.443341 0.003655
0.443361 0.003728
0.44338 0.003803
0.4434 0.003879
0.44342 0.003955
0.443439 0.004033
0.443459 0.004111
0.443479 0.004191
0.443498 0.004271
0.443518 0.004353
0.443538 0.004435
0.443557 0.004518
0.443577 0.004603
0.443597 0.004688
0.443616 0.004773
0.443636 0.00486
0.443656 0.004948
0.443675 0.005036
0.443695 0.005125
0.443715 0.005216
0.443734 0.005308
0.443754 0.005403
0.443774 0.0055
0.443794 0.0056
0.443813 0.005702
0.443833 0.005806
0.443853 0.005914
0.443872 0.006024
0.443892 0.006137
0.443912 0.006253
0.443931 0.006372
0.443951 0.006495
0.443971 0.006621
0.443991 0.00675
0.44401 0.006883
0.44403 0.007018
0.44405 0.007156
0.444069 0.007296
0.444089 0.007438
0.444109 0.007583
0.444129 0.00773
0.444148 0.00788
0.444168 0.008032
0.444188 0.008187
0.444208 0.008345
0.444227 0.008505
0.444247 0.008668
0.444267 0.008833
0.444286 0.009001
0.444306 0.009172
0.444326 0.009345
0.444346 0.009522
0.444365 0.009701
0.444385 0.009883
0.444405 0.010068
0.444425 0.010256
0.444444 0.010446
0.444464 0.01064
0.444484 0.010836
0.444504 0.011036
0.444523 0.011238
0.444543 0.011444
0.444563 0.011652
0.444583 0.011864
0.444603 0.012079
0.444622 0.012297
0.444642 0.012518
0.444662 0.012743
0.444682 0.01297
0.444701 0.013201
0.444721 0.013435
0.444741 0.013673
0.444761 0.013914
0.444781 0.014158
0.4448 0.014405
0.44482 0.014662
0.44484 0.014932
0.44486 0.015216
0.444879 0.015513
0.444899 0.015825
0.444919 0.01615
0.444939 0.01649
0.444959 0.016843
0.444978 0.017211
0.444998 0.017592
0.445018 0.017987
0.445038 0.018395
0.445058 0.018815
0.445077 0.019247
0.445097 0.01969
0.445117 0.020145
0.445137 0.020612
0.445157 0.021089
0.445177 0.021577
0.445196 0.022076
0.445216 0.022584
0.445236 0.023103
0.445256 0.023632
0.445276 0.02417
0.445295 0.024717
0.445315 0.025273
0.445335 0.025838
0.445355 0.026411
0.445375 0.026993
0.445395 0.027583
0.445414 0.02818
0.445434 0.028784
0.445454 0.029396
0.445474 0.030015
0.445494 0.030641
0.445514 0.031273
0.445534 0.031911
0.445553 0.032555
0.445573 0.033205
0.445593 0.03386
0.445613 0.03452
0.445633 0.035185
0.445653 0.035855
0.445673 0.036529
0.445692 0.037208
0.445712 0.03789
0.445732 0.038576
0.445752 0.039265
0.445772 0.039957
0.445792 0.040653
0.445812 0.04135
0.445831 0.042051
0.445851 0.042753
0.445871 0.043457
0.445891 0.044163
0.445911 0.044873
0.445931 0.045607
0.445951 0.046376
0.445971 0.047187
0.445991 0.048048
0.44601 0.048962
0.44603 0.049898
0.44605 0.050852
0.44607 0.051824
0.44609 0.052812
0.44611 0.053818
0.44613 0.05484
0.44615 0.055878
0.44617 0.056932
0.44619 0.058002
0.446209 0.059088
0.446229 0.060189
0.446249 0.061304
0.446269 0.062435
0.446289 0.06358
0.446309 0.06474
0.446329 0.065913
0.446349 0.0671
0.446369 0.0683
0.446389 0.069514
0.446409 0.070741
0.446429 0.07198
0.446449 0.073232
0.446468 0.074495
0.446488 0.075771
0.446508 0.077059
0.446528 0.078357
0.446548 0.079667
0.446568 0.080988
0.446588 0.082319
0.446608 0.083661
0.446628 0.085012
0.446648 0.086374
0.446668 0.087745
0.446688 0.089125
0.446708 0.090514
0.446728 0.091912
0.446748 0.093319
0.446768 0.094733
0.446788 0.096156
0.446808 0.097586
0.446828 0.099024
0.446847 0.100469
0.446867 0.101921
0.446887 0.10338
0.446907 0.104844
0.446927 0.106315
0.446947 0.107792
0.446967 0.109275
0.446987 0.110763
0.447007 0.112257
0.447027 0.11377
0.447047 0.115305
0.447067 0.116862
0.447087 0.118441
0.447107 0.120042
0.447127 0.121663
0.447147 0.123306
0.447167 0.12497
0.447187 0.126654
0.447207 0.128359
0.447227 0.130083
0.447247 0.131827
0.447267 0.133591
0.447287 0.135374
0.447307 0.137176
0.447327 0.138997
0.447347 0.140836
0.447367 0.142694
0.447387 0.144569
0.447407 0.146463
0.447427 0.148374
0.447447 0.150302
0.447467 0.152247
0.447487 0.154209
0.447507 0.156188
0.447527 0.158196
0.447547 0.160235
0.447567 0.162303
0.447588 0.164399
0.447608 0.166524
0.447628 0.168675
0.447648 0.170852
0.447668 0.173054
0.447688 0.17528
0.447708 0.17753
0.447728 0.179801
0.447748 0.182093
0.447768 0.184406
0.447788 0.186737
0.447808 0.189088
0.447828 0.191455
0.447848 0.193839
0.447868 0.196238
0.447888 0.198652
0.447908 0.20108
0.447928 0.20352
0.447948 0.205972
0.447968 0.208434
0.447989 0.210906
0.448009 0.21339
0.448029 0.215903
0.448049 0.218448
0.448069 0.221024
0.448089 0.22363
0.448109 0.226265
0.448129 0.228927
0.448149 0.231614
0.448169 0.234326
0.448189 0.237061
0.448209 0.239818
0.448229 0.242596
0.44825 0.245393
0.44827 0.248208
0.44829 0.251039
0.44831 0.253886
0.44833 0.256747
0.44835 0.25962
0.44837 0.262505
0.44839 0.2654
0.44841 0.268304
0.44843 0.271215
0.448451 0.274133
0.448471 0.277055
0.448491 0.27998
0.448511 0.282908
0.448531 0.285837
0.448551 0.288765
0.448571 0.291691
0.448591 0.294614
0.448612 0.297533
0.448632 0.300446
0.448652 0.303351
0.448672 0.306249
0.448692 0.309136
0.448712 0.312012
0.448732 0.314876
0.448752 0.317727
0.448773 0.320562
0.448793 0.32338
0.448813 0.326181
0.448833 0.328963
0.448853 0.331725
0.448873 0.334464
0.448893 0.337181
0.448914 0.339873
0.448934 0.34254
0.448954 0.345179
0.448974 0.34779
0.448994 0.350371
0.449014 0.352921
0.449035 0.355442
0.449055 0.357936
0.449075 0.360404
0.449095 0.362851
0.449115 0.365278
0.449135 0.367687
0.449156 0.370082
0.449176 0.372464
0.449196 0.374836
0.449216 0.3772
0.449236 0.379559
0.449256 0.381916
0.449277 0.384272
0.449297 0.386631
0.449317 0.388994
0.449337 0.39136
0.449357 0.39373
0.449378 0.396103
0.449398 0.398477
0.449418 0.400853
0.449438 0.403229
0.449458 0.405604
0.449479 0.407979
0.449499 0.410352
0.449519 0.412722
0.449539 0.415089
0.449559 0.417452
0.44958 0.419811
0.4496 0.422164
0.44962 0.424512
0.44964 0.426852
0.449661 0.429185
0.449681 0.43151
0.449701 0.433826
0.449721 0.436132
0.449741 0.438428
0.449762 0.440713
0.449782 0.442986
0.449802 0.445246
0.449822 0.447494
0.449843 0.449727
0.449863 0.451945
0.449883 0.454148
0.449903 0.456335
0.449924 0.458505
0.449944 0.460658
0.449964 0.462792
0.449984 0.464907
0.450005 0.467003
0.450025 0.4691
0.450045 0.471205
0.450065 0.473317
0.450086 0.475435
0.450106 0.477559
0.450126 0.479687
0.450146 0.481818
0.450167 0.483952
0.450187 0.486086
0.450207 0.48822
0.450227 0.490353
0.450248 0.492484
0.450268 0.494611
0.450288 0.496735
0.450308 0.498853
0.450329 0.500964
0.450349 0.503068
0.450369 0.505163
0.45039 0.507249
0.45041 0.509324
0.45043 0.511387
0.45045 0.513438
0.450471 0.515474
0.450491 0.517496
0.450511 0.519501
0.450532 0.521489
0.450552 0.523459
0.450572 0.52541
0.450593 0.52734
0.450613 0.529249
0.450633 0.531135
0.450653 0.532998
0.450674 0.534836
0.450694 0.536649
0.450714 0.538434
0.450735 0.540192
0.450755 0.541921
0.450775 0.543619
0.450796 0.545287
0.450816 0.546922
0.450836 0.548524
0.450857 0.550091
0.45087700000000003 0.551624
0.450897 0.553119
0.450918 0.554577
0.450938 0.555996
0.450958 0.557376
0.450979 0.558714
0.450999 0.560011
0.451019 0.56126
0.45104 0.562459
0.45106 0.563609
0.45108 0.564714
0.451101 0.565775
0.451121 0.566796
0.451141 0.567778
0.451162 0.568725
0.451182 0.569638
0.451202 0.570521
0.451223 0.571383
0.451243 0.57223
0.451264 0.573061
0.451284 0.573879
0.451304 0.574682
0.451325 0.575473
0.451345 0.57625
0.451365 0.577016
0.451386 0.577769
0.451406 0.578512
0.451427 0.579244
0.451447 0.579965
0.451467 0.580678
0.451488 0.581381
0.451508 0.582075
0.451528 0.582762
0.451549 0.583441
0.451569 0.584114
0.45159 0.58478
0.45161 0.58544
0.45163 0.586095
0.451651 0.586745
0.451671 0.587391
0.451692 0.588033
0.451712 0.588672
0.451732 0.589309
0.451753 0.589943
0.451773 0.590576
0.451794 0.591208
0.451814 0.591839
0.451834 0.592471
0.451855 0.593103
0.451875 0.593736
0.451896 0.594371
0.451916 0.595008
0.451937 0.595648
0.451957 0.596291
0.451977 0.596938
0.451998 0.597589
0.452018 0.598241
0.452039 0.598886
0.452059 0.599526
0.45208 0.600161
0.4521 0.60079
0.45212 0.601415
0.452141 0.602034
0.452161 0.60265
0.452182 0.603261
0.452202 0.603869
0.452223 0.604474
0.452243 0.605075
0.452264 0.605673
0.452284 0.606269
0.452304 0.606862
0.452325 0.607454
0.452345 0.608044
0.452366 0.608632
0.452386 0.60922
0.452407 0.609806
0.452427 0.610392
0.452448 0.610978
0.452468 0.611564
0.452489 0.61215
0.452509 0.612737
0.45253 0.613325
0.45255 0.613914
0.452571 0.614505
0.452591 0.615097
0.452612 0.615692
0.452632 0.616289
0.452653 0.616889
0.452673 0.617491
0.452694 0.618097
0.452714 0.618707
0.452735 0.619321
0.452755 0.619938
0.452776 0.620561
0.452796 0.621188
0.452817 0.62182
0.452837 0.622457
0.452858 0.623101
0.452878 0.62375
0.452899 0.624405
0.452919 0.625067
0.45294 0.625736
0.45296 0.626412
0.452981 0.627096
0.453001 0.627787
0.453022 0.628496
0.453042 0.629229
0.453063 0.629982
0.453083 0.630754
0.453104 0.631539
0.453124 0.63233
0.453145 0.633122
0.453165 0.633915
0.453186 0.634709
0.453206 0.635506
0.453227 0.636304
0.453248 0.637104
0.453268 0.637907
0.453289 0.638712
0.453309 0.63952
0.45333 0.640331
0.45335 0.641145
0.453371 0.641963
0.453391 0.642784
0.453412 0.643609
0.453432 0.644438
0.453453 0.645271
0.453474 0.646109
0.453494 0.646951
0.453515 0.647798
0.453535 0.648651
0.453556 0.649508
0.453576 0.650371
0.453597 0.65124
0.453618 0.652114
0.453638 0.652995
0.453659 0.653882
0.453679 0.654775
0.4537 0.655675
0.453721 0.656583
0.453741 0.657497
0.453762 0.658419
0.453782 0.659348
0.453803 0.660285
0.453823 0.66123
0.453844 0.662183
0.453865 0.663145
0.453885 0.664115
0.453906 0.665095
0.453926 0.666083
0.453947 0.66708
0.453968 0.668087
0.453988 0.669104
0.454009 0.670131
0.45403 0.67118
0.45405 0.672271
0.454071 0.673427
0.454091 0.674669
0.454112 0.676008
0.454133 0.677412
0.454153 0.678874
0.454174 0.68039
0.454194 0.681959
0.454215 0.683578
0.454236 0.685245
0.454256 0.686958
0.454277 0.688713
0.454298 0.69051
0.454318 0.692345
0.454339 0.694215
0.45436 0.69612
0.45438 0.698056
0.454401 0.70002
0.454422 0.702011
0.454442 0.704026
0.454463 0.706063
0.454483 0.70812
0.454504 0.710193
0.454525 0.71228
0.454545 0.71438
0.454566 0.71649
0.454587 0.718607
0.454607 0.720729
0.454628 0.722854
0.454649 0.724979
0.454669 0.727102
0.45469 0.72922
0.454711 0.731331
0.454731 0.733433
0.454752 0.735523
0.454773 0.737599
0.454794 0.739658
0.454814 0.741699
0.454835 0.743717
0.454856 0.745713
0.454876 0.747681
0.454897 0.749622
0.454918 0.751531
0.454938 0.753406
0.454959 0.755246
0.45498 0.757048
0.455 0.758809
0.455021 0.760565
0.455042 0.762349
0.455063 0.764158
0.455083 0.76599
0.455104 0.767841
0.455125 0.769711
0.455145 0.771595
0.455166 0.773492
0.455187 0.775399
0.455208 0.777313
0.455228 0.779232
0.455249 0.781153
0.45527 0.783073
0.45529 0.784991
0.455311 0.786903
0.455332 0.788807
0.455353 0.7907
0.455373 0.79258
0.455394 0.794444
0.455415 0.796289
0.455436 0.798113
0.455456 0.799914
0.455477 0.801689
0.455498 0.803435
0.455519 0.805149
0.455539 0.80683
0.45556 0.808474
0.455581 0.810078
0.455602 0.811641
0.455622 0.81316
0.455643 0.814631
0.455664 0.816054
0.455685 0.817424
0.455705 0.818739
0.455726 0.819997
0.455747 0.821194
0.455768 0.82233
0.455789 0.8234
0.455809 0.824402
0.45583 0.825334
0.455851 0.826193
0.455872 0.826977
0.455892 0.827682
0.455913 0.828299
0.455934 0.828815
0.455955 0.829264
0.455976 0.829683
0.455996 0.830108
0.456017 0.830561
0.456038 0.831028
0.456059 0.831507
0.45608 0.831997
0.4561 0.832496
0.456121 0.833004
0.456142 0.833519
0.456163 0.83404
0.456184 0.834566
0.456204 0.835095
0.456225 0.835626
0.456246 0.836158
0.456267 0.836689
0.456288 0.837218
0.456308 0.837745
0.456329 0.838267
0.45635 0.838784
0.456371 0.839294
0.456392 0.839796
0.456413 0.840289
0.456433 0.840771
0.456454 0.841241
0.456475 0.841697
0.456496 0.84214
0.456517 0.842566
0.456538 0.842976
0.456558 0.843367
0.456579 0.843739
0.4566 0.84409
0.456621 0.844419
0.456642 0.844725
0.456663 0.845005
0.456684 0.84526
0.456704 0.845488
0.456725 0.845687
0.456746 0.845856
0.456767 0.845994
0.456788 0.8461
0.456809 0.846175
0.45683 0.846243
0.45685 0.846308
0.456871 0.846368
0.456892 0.846424
0.456913 0.846472
0.456934 0.846513
0.456955 0.846544
0.456976 0.846565
0.456997 0.846573
0.457018 0.846551
0.457038 0.846467
0.457059 0.846324
0.45708 0.846124
0.457101 0.845872
0.457122 0.845571
0.457143 0.845223
0.457164 0.844831
0.457185 0.8444
0.457206 0.843931
0.457226 0.843429
0.457247 0.842896
0.457268 0.842335
0.457289 0.841751
0.45731 0.841145
0.457331 0.840522
0.457352 0.839884
0.457373 0.839234
0.457394 0.838576
0.457415 0.837913
0.457436 0.837249
0.457457 0.836585
0.457477 0.835926
0.457498 0.835275
0.457519 0.834635
0.45754 0.834008
0.457561 0.833399
0.457582 0.832811
0.457603 0.832247
0.457624 0.831709
0.457645 0.831202
0.457666 0.830728
0.457687 0.83029
0.457708 0.82989
0.457729 0.829492
0.45775 0.829092
0.457771 0.828693
0.457792 0.828296
0.457813 0.827906
0.457834 0.827524
0.457854 0.827156
0.457875 0.826802
0.457896 0.826467
0.457917 0.826154
0.457938 0.825865
0.457959 0.825604
0.45798 0.825373
0.458001 0.825176
0.458022 0.824995
0.458043 0.824816
0.458064 0.824639
0.458085 0.824465
0.458106 0.824293
0.458127 0.824124
0.458148 0.823959
0.458169 0.823797
0.45819 0.82364
0.458211 0.823487
0.458232 0.823338
0.458253 0.823196
0.458274 0.823058
0.458295 0.822927
0.458316 0.822801
0.458337 0.822683
0.458358 0.822571
0.458379 0.822467
0.4584 0.822371
0.458421 0.822282
0.458442 0.822202
0.458463 0.82213
0.458484 0.822068
0.458505 0.822015
0.458526 0.821973
0.458547 0.82194
0.458568 0.821918
0.458589 0.821906
0.45861 0.821915
0.458631 0.821997
0.458652 0.822154
0.458674 0.822382
0.458695 0.822672
0.458716 0.823021
0.458737 0.82342
0.458758 0.823863
0.458779 0.824346
0.4588 0.82486
0.458821 0.8254
0.458842 0.82596
0.458863 0.826533
0.458884 0.827114
0.458905 0.827695
0.458926 0.82827
0.458947 0.828834
0.458968 0.829379
0.458989 0.8299
0.45901 0.830395
0.459031 0.83089
0.459053 0.831391
0.459074 0.831897
0.459095 0.83241
0.459116 0.832929
0.459137 0.833456
0.459158 0.83399
0.459179 0.834533
0.4592 0.835084
0.459221 0.835644
0.459242 0.836215
0.459263 0.836795
0.459284 0.837386
0.459306 0.837988
0.459327 0.838602
0.459348 0.839228
0.459369 0.839866
0.45939 0.840518
0.459411 0.841185
0.459432 0.841876
0.459453 0.842591
0.459474 0.843328
0.459495 0.844087
0.459517 0.844865
0.459538 0.845662
0.459559 0.846475
0.45958 0.847303
0.459601 0.848145
0.459622 0.848998
0.459643 0.849863
0.459664 0.850736
0.459686 0.851618
0.459707 0.852505
0.459728 0.853397
0.459749 0.854292
0.45977 0.855189
0.459791 0.856085
0.459812 0.856981
0.459834 0.857873
0.459855 0.858761
0.459876 0.859643
0.459897 0.860518
0.459918 0.861383
0.459939 0.862239
0.45996 0.863082
0.459982 0.863912
0.460003 0.864727
0.460024 0.865543
0.460045 0.866368
0.460066 0.867199
0.460087 0.868033
0.460109 0.868865
0.46013 0.869693
0.460151 0.870513
0.460172 0.871322
0.460193 0.872116
0.460214 0.872891
0.460236 0.873646
0.460257 0.874375
0.460278 0.875076
0.460299 0.875745
0.46032 0.87639
0.460342 0.877022
0.460363 0.877642
0.460384 0.878251
0.460405 0.878849
0.460426 0.879436
0.460448 0.880013
0.460469 0.880581
0.46049 0.88114
0.460511 0.881691
0.460532 0.882234
0.460554 0.88277
0.460575 0.883299
0.460596 0.883821
0.460617 0.884338
0.460638 0.88485
0.46066 0.885357
0.460681 0.885861
0.460702 0.88636
0.460723 0.886857
0.460745 0.887351
0.460766 0.887843
0.460787 0.888334
0.460808 0.888824
0.460829 0.889313
0.460851 0.889803
0.460872 0.890293
0.460893 0.890785
0.460914 0.891279
0.460936 0.891774
0.460957 0.892273
0.460978 0.892775
0.460999 0.893281
0.461021 0.893787
0.461042 0.894287
0.461063 0.894783
0.461084 0.895276
0.461106 0.895766
0.461127 0.896255
0.461148 0.896744
0.46117 0.897232
0.461191 0.897722
0.461212 0.898214
0.461233 0.898707
0.461255 0.8992
0.461276 0.899692
0.461297 0.900186
0.461318 0.900679
0.46134 0.901172
0.461361 0.901666
0.461382 0.902159
0.461404 0.902653
0.461425 0.903147
0.461446 0.90364
0.461467 0.904134
0.461489 0.904627
0.46151 0.905121
0.461531 0.905614
0.461553 0.906107
0.461574 0.9066
0.461595 0.907093
0.461617 0.907586
0.461638 0.908078
0.461659 0.90857
0.461681 0.909061
0.461702 0.909553
0.461723 0.910043
0.461744 0.910534
0.461766 0.911024
0.461787 0.911513
0.461808 0.912002
0.46183 0.912491
0.461851 0.912979
0.461872 0.913466
0.461894 0.913953
0.461915 0.914439
0.461936 0.914924
0.461958 0.915409
0.461979 0.915893
0.462 0.916376
0.462022 0.916855
0.462043 0.91733
0.462065 0.917805
0.462086 0.918283
0.462107 0.918769
0.462129 0.919271
0.46215 0.919789
0.462171 0.920322
0.462193 0.920869
0.462214 0.921429
0.462235 0.922
0.462257 0.922581
0.462278 0.923171
0.462299 0.923769
0.462321 0.924374
0.462342 0.924984
0.462364 0.925598
0.462385 0.926215
0.462406 0.926834
0.462428 0.927453
0.462449 0.928072
0.462471 0.928688
0.462492 0.929302
0.462513 0.929911
0.462535 0.930515
0.462556 0.931112
0.462577 0.9317
0.462599 0.93228
0.46262 0.932849
0.462642 0.933407
0.462663 0.933951
0.462684 0.934481
0.462706 0.934997
0.462727 0.935495
0.462749 0.935976
0.46277 0.936437
0.462792 0.936879
0.462813 0.937299
0.462834 0.937696
0.462856 0.938069
0.462877 0.938417
0.462899 0.938739
0.46292 0.939033
0.462942 0.939298
0.462963 0.939533
0.462984 0.939737
0.463006 0.939909
0.463027 0.940072
0.463049 0.940232
0.46307 0.940391
0.463092 0.940548
0.463113 0.940702
0.463134 0.940855
0.463156 0.941005
0.463177 0.941153
0.463199 0.941298
0.46322 0.941441
0.463242 0.94158
0.463263 0.941717
0.463285 0.941851
0.463306 0.941982
0.463328 0.94211
0.463349 0.942235
0.463371 0.942356
0.463392 0.942473
0.463414 0.942587
0.463435 0.942698
0.463456 0.942804
0.463478 0.942907
0.463499 0.943005
0.463521 0.9431
0.463542 0.94319
0.463564 0.943275
0.463585 0.943357
0.463607 0.943433
0.463628 0.943505
0.46365 0.943572
0.463671 0.943634
0.463693 0.943691
0.463714 0.943744
0.463736 0.94379
0.463757 0.943832
0.463779 0.943868
0.4638 0.943898
0.463822 0.943923
0.463843 0.943941
0.463865 0.943954
0.463886 0.943961
0.463908 0.94396
0.463929 0.943936
0.463951 0.943891
0.463973 0.943832
0.463994 0.94377
0.464016 0.943703
0.464037 0.94362
0.464059 0.943521
0.46408 0.943406
0.464102 0.943277
0.464123 0.943135
0.464145 0.94298
0.464166 0.942814
0.464188 0.942639
0.464209 0.942454
0.464231 0.942261
0.464253 0.942062
0.464274 0.941857
0.464296 0.941647
0.464317 0.941433
0.464339 0.941217
0.46436 0.941
0.464382 0.940782
0.464403 0.940565
0.464425 0.94035
0.464447 0.940138
0.464468 0.939929
0.46449 0.939726
0.464511 0.939529
0.464533 0.939339
0.464554 0.939157
0.464576 0.938985
0.464598 0.938823
0.464619 0.938673
0.464641 0.938535
0.464662 0.938412
0.464684 0.938303
0.464706 0.93821
0.464727 0.938134
0.464749 0.938076
0.46477 0.938037
0.464792 0.938018
0.464814 0.938024
0.464835 0.938064
0.464857 0.938134
0.464878 0.938227
0.4649 0.938337
0.464922 0.93846
0.464943 0.938588
0.464965 0.938717
0.464987 0.93884
0.465008 0.938952
0.46503 0.93906
0.465051 0.939168
0.465073 0.939276
0.465095 0.939383
0.465116 0.93949
0.465138 0.939597
0.46516 0.939705
0.465181 0.939814
0.465203 0.939924
0.465224 0.940034
0.465246 0.940147
0.465268 0.940261
0.465289 0.940378
0.465311 0.940496
0.465333 0.940618
0.465354 0.940742
0.465376 0.940869
0.465398 0.940999
0.465419 0.941134
0.465441 0.941272
0.465463 0.941414
0.465484 0.94156
0.465506 0.941711
0.465528 0.941867
0.465549 0.942029
0.465571 0.942195
0.465593 0.942368
0.465614 0.942546
0.465636 0.942731
0.465658 0.942921
0.465679 0.943119
0.465701 0.943324
0.465723 0.943549
0.465744 0.943805
0.465766 0.944088
0.465788 0.944395
0.46581 0.944725
0.465831 0.945073
0.465853 0.945437
0.465875 0.945814
0.465896 0.946202
0.465918 0.946598
0.46594 0.946999
0.465962 0.947402
0.465983 0.947804
0.466005 0.948204
0.466027 0.948617
0.466048 0.949049
0.46607 0.949498
0.466092 0.949962
0.466114 0.950441
0.466135 0.950931
0.466157 0.951431
0.466179 0.951938
0.4662 0.952452
0.466222 0.952971
0.466244 0.953491
0.466266 0.954012
0.466287 0.954532
0.466309 0.955049
0.466331 0.95556
0.466353 0.956065
0.466374 0.95656
0.466396 0.957045
0.466418 0.957517
0.46644 0.957975
0.466461 0.958416
0.466483 0.958839
0.466505 0.959243
0.466527 0.959636
0.466548 0.960024
0.46657 0.960407
0.466592 0.960784
0.466614 0.961156
0.466636 0.961523
0.466657 0.961885
0.466679 0.962242
0.466701 0.962593
0.466723 0.96294
0.466744 0.963282
0.466766 0.963619
0.466788 0.96395
0.46681 0.964277
0.466832 0.9646
0.466853 0.964917
0.466875 0.965229
0.466897 0.965537
0.466919 0.965841
0.466941 0.966139
0.466962 0.966433
0.466984 0.966723
0.467006 0.967008
0.467028 0.967289
0.46705 0.967567
0.467071 0.967842
0.467093 0.968114
0.467115 0.968381
0.467137 0.968645
0.467159 0.968904
0.467181 0.969159
0.467202 0.96941
0.467224 0.969657
0.467246 0.969898
0.467268 0.970135
0.46729 0.970366
0.467312 0.970593
0.467333 0.970814
0.467355 0.971029
0.467377 0.971239
0.467399 0.971443
0.467421 0.97164
0.467443 0.971833
0.467464 0.972021
0.467486 0.972205
0.467508 0.972384
0.46753 0.972559
0.467552 0.972731
0.467574 0.972899
0.467596 0.973065
0.467617 0.973227
0.467639 0.973388
0.467661 0.973546
0.467683 0.973703
0.467705 0.973858
0.467727 0.974013
0.467749 0.974166
0.467771 0.97432
0.467792 0.974473
0.467814 0.974626
0.467836 0.97478
0.467858 0.974935
0.46788 0.975091
0.467902 0.975248
0.467924 0.975407
0.467946 0.975569
0.467968 0.975733
0.46799 0.975899
0.468011 0.976069
0.468033 0.976244
0.468055 0.976423
0.468077 0.976605
0.468099 0.976789
0.468121 0.976973
0.468143 0.977157
0.468165 0.977339
0.468187 0.977518
0.468209 0.977693
0.468231 0.977863
0.468252 0.978027
0.468274 0.978184
0.468296 0.978332
0.468318 0.978472
0.46834 0.978607
0.468362 0.978739
0.468384 0.978867
0.468406 0.978991
0.468428 0.979111
0.46845 0.979229
0.468472 0.979344
0.468494 0.979456
0.468516 0.979566
0.468538 0.979674
0.46856 0.979781
0.468582 0.979886
0.468604 0.97999
0.468626 0.980093
0.468647 0.980196
0.468669 0.980298
0.468691 0.980401
0.468713 0.980504
0.468735 0.980607
0.468757 0.980711
0.468779 0.980817
0.468801 0.980923
0.468823 0.981032
0.468845 0.981143
0.468867 0.981255
0.468889 0.981371
0.468911 0.981489
0.468933 0.98161
0.468955 0.981735
0.468977 0.981864
0.468999 0.981996
0.469021 0.982133
0.469043 0.982275
0.469065 0.98242
0.469087 0.98257
0.469109 0.982724
0.469131 0.982881
0.469153 0.983042
0.469175 0.983206
0.469197 0.983374
0.469219 0.983544
0.469241 0.983719
0.469263 0.983898
0.469285 0.98408
0.469307 0.984266
0.469329 0.984455
0.469351 0.984647
0.469373 0.984842
0.469395 0.98504
0.469417 0.98524
0.469439 0.985442
0.469462 0.985647
0.469484 0.985852
0.469506 0.98606
0.469528 0.986269
0.46955 0.986479
0.469572 0.986689
0.469594 0.986901
0.469616 0.987113
0.469638 0.987325
0.46966 0.987537
0.469682 0.987748
0.469704 0.987959
0.469726 0.98817
0.469748 0.98838
0.46977 0.988588
0.469792 0.988795
0.469814 0.989001
0.469836 0.989205
0.469859 0.989407
0.469881 0.989606
0.469903 0.989803
0.469925 0.989998
0.469947 0.990189
0.469969 0.990378
0.469991 0.990563
0.470013 0.990743
0.470035 0.990914
0.470057 0.991081
0.470079 0.991251
0.470102 0.991431
0.470124 0.991623
0.470146 0.991827
0.470168 0.992042
0.47019 0.992268
0.470212 0.992503
0.470234 0.992746
0.470256 0.992997
0.470278 0.993256
0.470301 0.99352
0.470323 0.993789
0.470345 0.994062
0.470367 0.994339
0.470389 0.994619
0.470411 0.9949
0.470433 0.995183
0.470455 0.995465
0.470478 0.995746
0.4705 0.996026
0.470522 0.996303
0.470544 0.996576
0.470566 0.996846
0.470588 0.99711
0.47061 0.997368
0.470633 0.997619
0.470655 0.997863
0.470677 0.998097
0.470699 0.998323
0.470721 0.998538
0.470743 0.998742
0.470765 0.998933
0.470788 0.999112
0.47081 0.999277
0.470832 0.999428
0.470854 0.999563
0.470876 0.999681
0.470898 0.999782
0.470921 0.999865
0.470943 0.999929
0.470965 0.999973
0.470987 0.999996
0.471009 1.0
0.471032 0.999995
0.471054 0.999986
0.471076 0.999973
0.471098 0.999955
0.47112 0.999933
0.471143 0.999907
0.471165 0.999877
0.471187 0.999843
0.471209 0.999805
0.471231 0.999763
0.471254 0.999718
0.471276 0.999669
0.471298 0.999617
0.47132 0.999562
0.471342 0.999503
0.471365 0.999441
0.471387 0.999376
0.471409 0.999309
0.471431 0.999238
0.471453 0.999165
0.471476 0.99909
0.471498 0.999012
0.47152 0.998931
0.471542 0.998849
0.471565 0.998764
0.471587 0.998677
0.471609 0.998588
0.471631 0.998498
0.471654 0.998406
0.471676 0.998312
0.471698 0.998217
0.47172 0.99812
0.471743 0.998022
0.471765 0.997923
0.471787 0.997823
0.471809 0.997722
0.471832 0.99762
0.471854 0.997517
0.471876 0.997414
0.471898 0.99731
0.471921 0.997195
0.471943 0.997057
0.471965 0.996898
0.471988 0.996719
0.47201 0.996525
0.472032 0.996314
0.472054 0.996085
0.472077 0.995841
0.472099 0.995582
0.472121 0.995308
0.472144 0.995019
0.472166 0.994718
0.472188 0.994404
0.47221 0.994078
0.472233 0.993741
0.472255 0.993394
0.472277 0.993036
0.4723 0.99267
0.472322 0.992295
0.472344 0.991912
0.472367 0.991522
0.472389 0.991126
0.472411 0.990724
0.472434 0.990318
0.472456 0.989907
0.472478 0.989492
0.4725 0.989075
0.472523 0.988655
0.472545 0.988234
0.472567 0.987812
0.47259 0.98739
0.472612 0.986969
0.472634 0.986548
0.472657 0.98613
0.472679 0.985715
0.472701 0.985303
0.472724 0.984895
0.472746 0.984492
0.472769 0.984094
0.472791 0.983702
0.472813 0.983318
0.472836 0.982941
0.472858 0.982572
0.47288 0.982212
0.472903 0.981862
0.472925 0.981516
0.472947 0.981172
0.47297 0.980836
0.472992 0.980511
0.473015 0.980197
0.473037 0.979874
0.473059 0.979541
0.473082 0.979199
0.473104 0.97885
0.473126 0.978495
0.473149 0.978135
0.473171 0.97777
0.473194 0.977403
0.473216 0.977034
0.473238 0.976664
0.473261 0.976295
0.473283 0.975928
0.473306 0.975563
0.473328 0.975202
0.47335 0.974846
0.473373 0.974497
0.473395 0.974154
0.473418 0.973821
0.47344 0.973496
0.473462 0.973183
0.473485 0.972881
0.473507 0.972592
0.47353 0.972318
0.473552 0.972058
0.473575 0.971816
0.473597 0.97159
0.473619 0.971384
0.473642 0.971197
0.473664 0.971031
0.473687 0.970888
0.473709 0.970767
0.473732 0.970671
0.473754 0.970601
0.473776 0.970558
0.473799 0.970542
0.473821 0.970558
0.473844 0.970605
0.473866 0.970679
0.473889 0.970775
0.473911 0.9708870000000001
0.473934 0.97101
0.473956 0.971139
0.473979 0.971268
0.474001 0.971394
0.474024 0.97152
0.474046 0.971654
0.474068 0.971795
0.474091 0.971944
0.474113 0.972099
0.474136 0.972261
0.474158 0.972429
0.474181 0.972603
0.474203 0.972784
0.474226 0.97297
0.474248 0.973162
0.474271 0.97336
0.474293 0.973562
0.474316 0.97377
0.474338 0.973983
0.474361 0.9742
0.474383 0.974422
0.474406 0.974648
0.474428 0.974878
0.474451 0.975112
0.474473 0.975349
0.474496 0.97559
0.474518 0.975834
0.474541 0.976081
0.474563 0.976331
0.474586 0.976583
0.474608 0.976838
0.474631 0.977095
0.474654 0.977354
0.474676 0.977615
0.474699 0.977877
0.474721 0.978151
0.474744 0.978446
0.474766 0.97876
0.474789 0.979088
0.474811 0.979428
0.474834 0.979777
0.474856 0.980129
0.474879 0.980482
0.474901 0.980833
0.474924 0.981178
0.474947 0.981514
0.474969 0.981837
0.474992 0.982143
0.475014 0.982436
0.475037 0.982739
0.475059 0.983053
0.475082 0.983375
0.475105 0.983704
0.475127 0.984038
0.47515 0.984376
0.475172 0.984714
0.475195 0.985052
0.475217 0.985388
0.47524 0.985719
0.475263 0.986045
0.475285 0.986363
0.475308 0.986671
0.47533 0.986967
0.475353 0.98725
0.475376 0.987518
0.475398 0.987769
0.475421 0.988001
0.475443 0.988213
0.475466 0.988402
0.475489 0.988566
0.475511 0.988704
0.475534 0.988815
0.475556 0.988895
0.475579 0.988943
0.475602 0.988958
0.475624 0.988942
0.475647 0.988898
0.47567 0.988829
0.475692 0.988737
0.475715 0.988622
0.475737 0.988488
0.47576 0.988336
0.475783 0.988168
0.475805 0.987986
0.475828 0.987791
0.475851 0.987586
0.475873 0.987372
0.475896 0.987152
0.475919 0.986926
0.475941 0.986698
0.475964 0.986468
0.475986 0.986239
0.476009 0.986011
0.476032 0.985771
0.476054 0.985516
0.476077 0.985246
0.4761 0.984961
0.476122 0.984661
0.476145 0.984346
0.476168 0.984017
0.47619 0.983673
0.476213 0.983315
0.476236 0.982942
0.476259 0.982556
0.476281 0.982155
0.476304 0.981741
0.476327 0.981313
0.476349 0.980872
0.476372 0.980417
0.476395 0.979949
0.476417 0.979467
0.47644 0.978973
0.476463 0.978466
0.476485 0.977946
0.476508 0.977413
0.476531 0.976868
0.476554 0.97631
0.476576 0.975741
0.476599 0.975159
0.476622 0.974542
0.476644 0.973866
0.476667 0.973135
0.47669 0.972353
0.476713 0.971525
0.476735 0.970654
0.476758 0.969745
0.476781 0.968802
0.476804 0.96783
0.476826 0.966832
0.476849 0.965813
0.476872 0.964777
0.476894 0.963728
0.476917 0.962671
0.47694 0.96161
0.476963 0.960549
0.476985 0.959492
0.477008 0.95844
0.477031 0.957361
0.477054 0.956247
0.477076 0.955102
0.477099 0.953929
0.477122 0.952731
0.477145 0.951511
0.477168 0.950273
0.47719 0.949019
0.477213 0.947753
0.477236 0.946479
0.477259 0.945198
0.477281 0.943915
0.477304 0.942633
0.477327 0.941355
0.47735 0.940084
0.477373 0.938823
0.477395 0.937576
0.477418 0.936346
0.477441 0.935136
0.477464 0.933949
0.477487 0.932789
0.477509 0.931654
0.477532 0.930518
0.477555 0.929374
0.477578 0.928226
0.477601 0.927076
0.477623 0.925925
0.477646 0.924777
0.477669 0.923634
0.477692 0.922497
0.477715 0.921371
0.477737 0.920256
0.47776 0.919156
0.477783 0.918073
0.477806 0.917009
0.477829 0.915966
0.477852 0.914947
0.477874 0.913955
0.477897 0.912992
0.47792 0.91206
0.477943 0.911161
0.477966 0.910298
0.477989 0.909474
0.478011 0.908685
0.478034 0.9079
0.478057 0.907117
0.47808 0.906339
0.478103 0.90557
0.478126 0.904813
0.478149 0.904072
0.478171 0.90335
0.478194 0.902652
0.478217 0.90198
0.47824 0.901339
0.478263 0.900731
0.478286 0.90016
0.478309 0.899631
0.478332 0.899145
0.478354 0.898708
0.478377 0.898322
0.4784 0.897992
0.478423 0.897692
0.478446 0.897398
0.478469 0.89711
0.478492 0.896828
0.478515 0.896554
0.478538 0.896286
0.47856 0.896026
0.478583 0.895774
0.478606 0.89553
0.478629 0.895295
0.478652 0.895069
0.478675 0.894852
0.478698 0.894645
0.478721 0.894449
0.478744 0.894264
0.478767 0.894089
0.47879 0.893926
0.478813 0.893775
0.478835 0.893636
0.478858 0.893509
0.478881 0.893396
0.478904 0.893296
0.478927 0.89321
0.47895 0.893139
0.478973 0.893081
0.478996 0.893039
0.479019 0.893008
0.479042 0.892977
0.479065 0.892948
0.479088 0.892921
0.479111 0.892895
0.479134 0.892872
0.479157 0.892851
0.47918 0.892832
0.479203 0.892816
0.479226 0.892803
0.479249 0.892793
0.479272 0.892786
0.479294 0.892784
0.479317 0.892805
0.47934 0.892895
0.479363 0.893054
0.479386 0.893278
0.479409 0.893564
0.479432 0.893908
0.479455 0.894307
0.479478 0.894758
0.479501 0.895257
0.479524 0.895802
0.479547 0.896388
0.47957 0.897013
0.479593 0.897674
0.479616 0.898366
0.479639 0.899087
0.479662 0.899834
0.479685 0.900602
0.479708 0.901389
0.479731 0.902191
0.479754 0.903006
0.479777 0.903829
0.4798 0.904658
0.479823 0.905488
0.479846 0.906318
0.479869 0.907143
0.479893 0.907959
0.479916 0.908765
0.479939 0.909556
0.479962 0.910329
0.479985 0.911081
0.480008 0.911811
0.480031 0.912562
0.480054 0.913342
0.480077 0.914147
0.4801 0.914974
0.480123 0.915817
0.480146 0.916672
0.480169 0.917535
0.480192 0.918402
0.480215 0.919268
0.480238 0.920129
0.480261 0.92098
0.480284 0.921817
0.480307 0.922638
0.48033 0.92346
0.480354 0.92429
0.480377 0.925127
0.4804 0.925969
0.480423 0.926816
0.480446 0.927667
0.480469 0.92852
0.480492 0.929375
0.480515 0.930231
0.480538 0.931086
0.480561 0.93194
0.480584 0.932791
0.480607 0.933639
0.480631 0.934482
0.480654 0.93532
0.480677 0.936152
0.4807 0.936976
0.480723 0.937791
0.480746 0.938597
0.480769 0.939392
0.480792 0.940175
0.480815 0.940946
0.480839 0.941703
0.480862 0.942446
0.480885 0.943173
0.480908 0.943883
0.480931 0.944576
0.480954 0.945249
0.480977 0.945903
0.481 0.946536
0.481024 0.947151
0.481047 0.94775
0.48107 0.948331
0.481093 0.948893
0.481116 0.949434
0.481139 0.949954
0.481162 0.95045
0.481186 0.950921
0.481209 0.951368
0.481232 0.951817
0.481255 0.952274
0.481278 0.952736
0.481301 0.953203
0.481325 0.953673
0.481348 0.954146
0.481371 0.95462
0.481394 0.955093
0.481417 0.955565
0.48144 0.956034
0.481464 0.956499
0.481487 0.956958
0.48151 0.957411
0.481533 0.957856
0.481556 0.958292
0.48158 0.958718
0.481603 0.959132
0.481626 0.959533
0.481649 0.959919
0.481672 0.960291
0.481696 0.960645
0.481719 0.960982
0.481742 0.961299
0.481765 0.961595
0.481788 0.96187
0.481812 0.962122
0.481835 0.962349
0.481858 0.962551
0.481881 0.962726
0.481904 0.962872
0.481928 0.962989
0.481951 0.963076
0.481974 0.96313
0.481997 0.963151
0.482021 0.96315
0.482044 0.963148
0.482067 0.963144
0.48209 0.96314
0.482114 0.963132
0.482137 0.963107
0.48216 0.963066
0.482183 0.963009
0.482207 0.962936
0.48223 0.962849
0.482253 0.962748
0.482276 0.962635
0.4823 0.962509
0.482323 0.962372
0.482346 0.962225
0.482369 0.962067
0.482393 0.961902
0.482416 0.961728
0.482439 0.961547
0.482462 0.961359
0.482486 0.961166
0.482509 0.960968
0.482532 0.960767
0.482556 0.960562
0.482579 0.960355
0.482602 0.960146
0.482625 0.959937
0.482649 0.959728
0.482672 0.95952
0.482695 0.959314
0.482719 0.959111
0.482742 0.958911
0.482765 0.958715
0.482789 0.958524
0.482812 0.958339
0.482835 0.958161
0.482859 0.957991
0.482882 0.957829
0.482905 0.957676
0.482928 0.957533
0.482952 0.957401
0.482975 0.957281
0.482998 0.957173
0.483022 0.957073
0.483045 0.956971
0.483068 0.956869
0.483092 0.956767
0.483115 0.956664
0.483138 0.956561
0.483162 0.956458
0.483185 0.956355
0.483209 0.956252
0.483232 0.95615
0.483255 0.956048
0.483279 0.955947
0.483302 0.955847
0.483325 0.955748
0.483349 0.95565
0.483372 0.955554
0.483395 0.955459
0.483419 0.955365
0.483442 0.955274
0.483465 0.955184
0.483489 0.955097
0.483512 0.955011
0.483536 0.954929
0.483559 0.954848
0.483582 0.954771
0.483606 0.954696
0.483629 0.954625
0.483653 0.954556
0.483676 0.954491
0.483699 0.95443
0.483723 0.954372
0.483746 0.954318
0.48377 0.954268
0.483793 0.954222
0.483816 0.95418
0.48384 0.954143
0.483863 0.95411
0.483887 0.954082
0.48391 0.954059
0.483933 0.954041
0.483957 0.954028
0.48398 0.954021
0.484004 0.954019
0.484027 0.954028
0.484051 0.954052
0.484074 0.954088
0.484097 0.954138
0.484121 0.954199
0.484144 0.954272
0.484168 0.954356
0.484191 0.954451
0.484215 0.954556
0.484238 0.95467
0.484262 0.954792
0.484285 0.954923
0.484308 0.955062
0.484332 0.955208
0.484355 0.95536
0.484379 0.955518
0.484402 0.955681
0.484426 0.955849
0.484449 0.956021
0.484473 0.956197
0.484496 0.956376
0.48452 0.956558
0.484543 0.956741
0.484567 0.956926
0.48459 0.957111
0.484614 0.957297
0.484637 0.957482
0.48466 0.957666
0.484684 0.957849
0.484707 0.95803
0.484731 0.958207
0.484754 0.958382
0.484778 0.958553
0.484801 0.958719
0.484825 0.95888
0.484848 0.959036
0.484872 0.959186
0.484896 0.959328
0.484919 0.959468
0.484943 0.959611
0.484966 0.959752
0.48499 0.959883
0.485013 0.960003
0.485037 0.960123
0.48506 0.960246
0.485084 0.96037
0.485107 0.960496
0.485131 0.960624
0.485154 0.960752
0.485178 0.96088
0.485201 0.961009
0.485225 0.961137
0.485248 0.961265
0.485272 0.961392
0.485296 0.961517
0.485319 0.96164
0.485343 0.961762
0.485366 0.96188
0.48539 0.961996
0.485413 0.962109
0.485437 0.962217
0.48546 0.962322
0.485484 0.962423
0.485508 0.962518
0.485531 0.962609
0.485555 0.962694
0.485578 0.962773
0.485602 0.962845
0.485625 0.962911
0.485649 0.96297
0.485673 0.963022
0.485696 0.963065
0.48572 0.963101
0.485743 0.963128
0.485767 0.963146
0.485791 0.963154
0.485814 0.963146
0.485838 0.963095
0.485861 0.963005
0.485885 0.962884
0.485909 0.962739
0.485932 0.962578
0.485956 0.962409
0.485979 0.962239
0.486003 0.962076
0.486027 0.961914
0.48605 0.961749
0.486074 0.96158
0.486098 0.961406
0.486121 0.961228
0.486145 0.961043
0.486169 0.960854
0.486192 0.960658
0.486216 0.960456
0.486239 0.960247
0.486263 0.960031
0.486287 0.959808
0.48631 0.959577
0.486334 0.959337
0.486358 0.959089
0.486381 0.958833
0.486405 0.958567
0.486429 0.958292
0.486452 0.958006
0.486476 0.957711
0.4865 0.957405
0.486523 0.957088
0.486547 0.956759
0.486571 0.956419
0.486594 0.956067
0.486618 0.955702
0.486642 0.955325
0.486665 0.954934
0.486689 0.95453
0.486713 0.954104
0.486736 0.953615
0.48676 0.953061
0.486784 0.952445
0.486808 0.951772
0.486831 0.951047
0.486855 0.950273
0.486879 0.949454
0.486902 0.948594
0.486926 0.947698
0.48695 0.94677
0.486973 0.945814
0.486997 0.944834
0.487021 0.943817
0.487045 0.942741
0.487068 0.941606
0.487092 0.940415
0.487116 0.939168
0.48714 0.937869
0.487163 0.936517
0.487187 0.935116
0.487211 0.933666
0.487234 0.93217
0.487258 0.930629
0.487282 0.929045
0.487306 0.927419
0.487329 0.925754
0.487353 0.92405
0.487377 0.92231
0.487401 0.920536
0.487424 0.918728
0.487448 0.916889
0.487472 0.91502
0.487496 0.913124
0.48752 0.911201
0.487543 0.909254
0.487567 0.907284
0.487591 0.905293
0.487615 0.903282
0.487638 0.901254
0.487662 0.89921
0.487686 0.897151
0.48771 0.895073
0.487734 0.892917
0.487757 0.890671
0.487781 0.888341
0.487805 0.885929
0.487829 0.88344
0.487852 0.880878
0.487876 0.878247
0.4879 0.875551
0.487924 0.872793
0.487948 0.869979
0.487972 0.867111
0.487995 0.864195
0.488019 0.86122
0.488043 0.858163
0.488067 0.855026
0.488091 0.851813
0.488114 0.848526
0.488138 0.84517
0.488162 0.841748
0.488186 0.838263
0.48821 0.834718
0.488234 0.831116
0.488257 0.827462
0.488281 0.823758
0.488305 0.820008
0.488329 0.816215
0.488353 0.812382
0.488377 0.808513
0.4884 0.804612
0.488424 0.800681
0.488448 0.796724
0.488472 0.792744
0.488496 0.788745
0.48852 0.78473
0.488544 0.780702
0.488568 0.776665
0.488591 0.772622
0.488615 0.768577
0.488639 0.764533
0.488663 0.760493
0.488687 0.756461
0.488711 0.752439
0.488735 0.748433
0.488759 0.744444
0.488782 0.740476
0.488806 0.736534
0.48883 0.732619
0.488854 0.728736
0.488878 0.724887
0.488902 0.721077
0.488926 0.717308
0.48895 0.713585
0.488974 0.70991
0.488998 0.706287
0.489021 0.702702
0.489045 0.699131
0.489069 0.695574
0.489093 0.692029
0.489117 0.688496
0.489141 0.684975
0.489165 0.681466
0.489189 0.677967
0.489213 0.674479
0.489237 0.671001
0.489261 0.667532
0.489285 0.664072
0.489309 0.660621
0.489333 0.657178
0.489356 0.653742
0.48938 0.650314
0.489404 0.646892
0.489428 0.643476
0.489452 0.640065
0.489476 0.63666
0.4895 0.63326
0.489524 0.629864
0.489548 0.626471
0.489572 0.623082
0.489596 0.619695
0.48962 0.616311
0.489644 0.612929
0.489668 0.609548
0.489692 0.606168
0.489716 0.602788
0.48974 0.599408
0.489764 0.596027
0.489788 0.592645
0.489812 0.589262
0.489836 0.585877
0.48986 0.582489
0.489884 0.579098
0.489908 0.575704
0.489932 0.572306
0.489956 0.568903
0.48998 0.565496
0.490004 0.562083
0.490028 0.55867
0.490052 0.555262
0.490076 0.551857
0.4901 0.548455
0.490124 0.545056
0.490148 0.541661
0.490172 0.538268
0.490196 0.534877
0.49022 0.531489
0.490244 0.528102
0.490268 0.524717
0.490292 0.521334
0.490316 0.517952
0.49034 0.514571
0.490364 0.511191
0.490388 0.507811
0.490412 0.504432
0.490436 0.501052
0.490461 0.497673
0.490485 0.494293
0.490509 0.490913
0.490533 0.487532
0.490557 0.48415
0.490581 0.480766
0.490605 0.477381
0.490629 0.473994
0.490653 0.470605
0.490677 0.467214
0.490701 0.463821
0.490725 0.460425
0.490749 0.457026
0.490773 0.453624
0.490798 0.450218
0.490822 0.446809
0.490846 0.443396
0.49087 0.439978
0.490894 0.436557
0.490918 0.433131
0.490942 0.4297
0.490966 0.426264
0.49099 0.422823
0.491014 0.419373
0.491039 0.415903
0.491063 0.412414
0.491087 0.408906
0.491111 0.40538
0.491135 0.401839
0.491159 0.398284
0.491183 0.394716
0.491207 0.391137
0.491232 0.387548
0.491256 0.38395
0.49128 0.380345
0.491304 0.376734
0.491328 0.37312
0.491352 0.369502
0.491376 0.365883
0.4914 0.362265
0.491425 0.358648
0.491449 0.355034
0.491473 0.351424
0.491497 0.34782
0.491521 0.344224
0.491545 0.340636
0.49157 0.337059
0.491594 0.333493
0.491618 0.329941
0.491642 0.326403
0.491666 0.322881
0.49169 0.319376
0.491715 0.315891
0.491739 0.312426
0.491763 0.308982
0.491787 0.305562
0.491811 0.302167
0.491836 0.298798
0.49186 0.295456
0.491884 0.292144
0.491908 0.288863
0.491932 0.285613
0.491957 0.282397
0.491981 0.279215
0.492005 0.27607
0.492029 0.27294
0.492053 0.269817
0.492078 0.266702
0.492102 0.263598
0.492126 0.260507
0.49215 0.25743
0.492174 0.25437
0.492199 0.251328
0.492223 0.248306
0.492247 0.245307
0.492271 0.242332
0.492296 0.239383
0.49232 0.236463
0.492344 0.233572
0.492368 0.230713
0.492393 0.227889
0.492417 0.2251
0.492441 0.222349
0.492465 0.219638
0.49249 0.216969
0.492514 0.214344
0.492538 0.211764
0.492562 0.209232
0.492587 0.20675
0.492611 0.204318
0.492635 0.201933
0.492659 0.199591
0.492684 0.19729
0.492708 0.195029
0.492732 0.192805
0.492756 0.190617
0.492781 0.188463
0.492805 0.186341
0.492829 0.184249
0.492854 0.182185
0.492878 0.180147
0.492902 0.178133
0.492927 0.176142
0.492951 0.174171
0.492975 0.172219
0.492999 0.170283
0.493024 0.168364
0.493048 0.166462
0.493072 0.164577
0.493097 0.162708
0.493121 0.160855
0.493145 0.159017
0.49317 0.157193
0.493194 0.155384
0.493218 0.153588
0.493243 0.151806
0.493267 0.150036
0.493291 0.148278
0.493316 0.146532
0.49334 0.144796
0.493364 0.143072
0.493389 0.141357
0.493413 0.139652
0.493437 0.137955
0.493462 0.136268
0.493486 0.134588
0.49351 0.132915
0.493535 0.13125
0.493559 0.129591
0.493583 0.127937
0.493608 0.126289
0.493632 0.124646
0.493657 0.123007
0.493681 0.121372
0.493705 0.119741
0.49373 0.118112
0.493754 0.116485
0.493778 0.11486
0.493803 0.113236
0.493827 0.111613
0.493852 0.10999
0.493876 0.108366
0.4939 0.106742
0.493925 0.105116
0.493949 0.103488
0.493974 0.101857
0.493998 0.100224
0.494022 0.098595
0.494047 0.096984
0.494071 0.095395
0.494096 0.093832
0.49412 0.092281
0.494144 0.090707
0.494169 0.089111
0.494193 0.087497
0.494218 0.085866
0.494242 0.084221
0.494267 0.082565
0.494291 0.0809
0.494315 0.079227
0.49434 0.077551
0.494364 0.075873
0.494389 0.074196
0.494413 0.072522
0.494438 0.070854
0.494462 0.069194
0.494486 0.067545
0.494511 0.065908
0.494535 0.064288
0.49456 0.062685
0.494584 0.061103
0.494609 0.059544
0.494633 0.058011
0.494658 0.056505
0.494682 0.05503
0.494707 0.053588
0.494731 0.052181
0.494756 0.050813
0.49478 0.049484
0.494805 0.048199
0.494829 0.046959
0.494854 0.045767
0.494878 0.044625
0.494903 0.043536
0.494927 0.042503
0.494951 0.041528
0.494976 0.040613
0.495 0.03976
0.495025 0.038946
0.49505 0.038145
0.495074 0.037357
0.495099 0.036582
0.495123 0.035821
0.495148 0.035072
0.495172 0.034336
0.495197 0.033614
0.495221 0.032904
0.495246 0.032207
0.49527 0.031523
0.495295 0.030851
0.495319 0.030192
0.495344 0.029546
0.495368 0.028912
0.495393 0.028291
0.495417 0.027682
0.495442 0.027085
0.495466 0.026501
0.495491 0.025929
0.495516 0.025369
0.49554 0.024821
0.495565 0.024285
0.495589 0.023762
0.495614 0.02325
0.495638 0.02275
0.495663 0.022262
0.495688 0.021786
0.495712 0.021322
0.495737 0.020869
0.495761 0.020428
0.495786 0.019998
0.49581 0.01958
0.495835 0.019174
0.49586 0.018778
0.495884 0.018394
0.495909 0.018022
0.495933 0.01766
0.495958 0.01731
0.495983 0.016971
0.496007 0.016642
0.496032 0.01632
0.496056 0.016003
0.496081 0.015691
0.496106 0.015383
0.49613 0.01508
0.496155 0.014781
0.496179 0.014488
0.496204 0.014199
0.496229 0.013915
0.496253 0.013636
0.496278 0.013361
0.496303 0.013092
0.496327 0.012827
0.496352 0.012566
0.496376 0.012311
0.496401 0.01206
0.496426 0.011814
0.49645 0.011573
0.496475 0.011337
0.4965 0.011105
0.496524 0.010879
0.496549 0.010657
0.496574 0.01044
0.496598 0.010227
0.496623 0.01002
0.496648 0.009817
0.496672 0.009619
0.496697 0.009425
0.496722 0.009237
0.496746 0.009053
0.496771 0.008874
0.496796 0.0087
0.49682 0.008531
0.496845 0.008367
0.49687 0.008207
0.496894 0.008052
0.496919 0.007902
0.496944 0.007757
0.496968 0.007616
0.496993 0.007481
0.497018 0.007349
0.497043 0.00722
0.497067 0.007093
0.497092 0.006968
0.497117 0.006845
0.497141 0.006724
0.497166 0.006605
0.497191 0.006488
0.497216 0.006373
0.49724 0.00626
0.497265 0.00615
0.49729 0.006041
0.497315 0.005934
0.497339 0.005829
0.497364 0.005726
0.497389 0.005625
0.497413 0.005526
0.497438 0.005428
0.497463 0.005333
0.497488 0.005239
0.497512 0.005148
0.497537 0.005058
0.497562 0.00497
0.497587 0.004884
0.497611 0.004799
0.497636 0.004717
0.497661 0.004636
0.497686 0.004557
0.497711 0.004479
0.497735 0.004403
0.49776 0.004329
0.497785 0.004257
0.49781 0.004187
0.497834 0.004118
0.497859 0.00405
0.497884 0.003985
0.497909 0.003921
0.497934 0.003858
0.497958 0.003798
0.497983 0.003738
0.498008 0.003681
0.498033 0.003624
0.498058 0.003569
0.498082 0.003514
0.498107 0.00346
0.498132 0.003407
0.498157 0.003355
0.498182 0.003304
0.498206 0.003254
0.498231 0.003205
0.498256 0.003156
0.498281 0.003109
0.498306 0.003062
0.498331 0.003016
0.498355 0.002971
0.49838 0.002926
0.498405 0.002882
0.49843 0.002839
0.498455 0.002797
0.49848 0.002756
0.498504 0.002715
0.498529 0.002675
0.498554 0.002635
0.498579 0.002596
0.498604 0.002558
0.498629 0.002521
0.498654 0.002484
0.498679 0.002447
0.498703 0.002412
0.498728 0.002377
0.498753 0.002342
0.498778 0.002308
0.498803 0.002274
0.498828 0.002241
0.498853 0.002209
0.498878 0.002177
0.498902 0.002145
0.498927 0.002114
0.498952 0.002084
0.498977 0.002053
0.499002 0.002024
# -------------------
# GOES19_ABI Band CH064
# -------------------
0.575374 0.002001
0.575407 0.002022
0.57544 0.002042
0.575473 0.002063
0.575506 0.002084
0.57554 0.002105
0.575573 0.002126
0.575606 0.002147
0.575639 0.002168
0.575672 0.00219
0.575705 0.002212
0.575738 0.002233
0.575772 0.002255
0.575805 0.002277
0.575838 0.0023
0.575871 0.002322
0.575904 0.002344
0.575937 0.002367
0.575971 0.00239
0.576004 0.002414
0.576037 0.002439
0.57607 0.002464
0.576103 0.00249
0.576136 0.002516
0.57617 0.002542
0.576203 0.002568
0.576236 0.002595
0.576269 0.002621
0.576302 0.002648
0.576336 0.002675
0.576369 0.002702
0.576402 0.00273
0.576435 0.002757
0.576469 0.002785
0.576502 0.002813
0.576535 0.002842
0.576568 0.00287
0.576602 0.002899
0.576635 0.002928
0.576668 0.002957
0.576701 0.002987
0.576735 0.003016
0.576768 0.003046
0.576801 0.003077
0.576834 0.003107
0.576868 0.003138
0.576901 0.003169
0.576934 0.0032
0.576967 0.003232
0.577001 0.003267
0.577034 0.003303
0.577067 0.003339
0.577101 0.003376
0.577134 0.003414
0.577167 0.003452
0.577201 0.00349
0.577234 0.003529
0.577267 0.003568
0.577301 0.003607
0.577334 0.003647
0.577367 0.003687
0.577401 0.003728
0.577434 0.003769
0.577467 0.00381
0.577501 0.003852
0.577534 0.003894
0.577567 0.003936
0.577601 0.003979
0.577634 0.004022
0.577667 0.004065
0.577701 0.004109
0.577734 0.004153
0.577768 0.004197
0.577801 0.004241
0.577834 0.004286
0.577868 0.004331
0.577901 0.004377
0.577934 0.004423
0.577968 0.00447
0.578001 0.004521
0.578035 0.004573
0.578068 0.004626
0.578102 0.004679
0.578135 0.004733
0.578168 0.004787
0.578202 0.004842
0.578235 0.004897
0.578269 0.004953
0.578302 0.005009
0.578336 0.005066
0.578369 0.005124
0.578402 0.005182
0.578436 0.00524
0.578469 0.005299
0.578503 0.005358
0.578536 0.005418
0.57857 0.005478
0.578603 0.005539
0.578637 0.0056
0.57867 0.005662
0.578704 0.005724
0.578737 0.005787
0.578771 0.00585
0.578804 0.005914
0.578838 0.005978
0.578871 0.006042
0.578905 0.006107
0.578938 0.006174
0.578972 0.006244
0.579005 0.006316
0.579039 0.006391
0.579072 0.006466
0.579106 0.006542
0.579139 0.006619
0.579173 0.006697
0.579206 0.006775
0.57924 0.006854
0.579274 0.006934
0.579307 0.007015
0.579341 0.007096
0.579374 0.007178
0.579408 0.007261
0.579441 0.007344
0.579475 0.007428
0.579509 0.007513
0.579542 0.007598
0.579576 0.007684
0.579609 0.00777
0.579643 0.007857
0.579677 0.007945
0.57971 0.008033
0.579744 0.008122
0.579777 0.008211
0.579811 0.0083
0.579845 0.008391
0.579878 0.008481
0.579912 0.008572
0.579945 0.008666
0.579979 0.008764
0.580013 0.008865
0.580046 0.008968
0.58008 0.009072
0.580114 0.009176
0.580147 0.009281
0.580181 0.009388
0.580215 0.009495
0.580248 0.009603
0.580282 0.009711
0.580316 0.009821
0.580349 0.009932
0.580383 0.010043
0.580417 0.010155
0.58045 0.010268
0.580484 0.010383
0.580518 0.010497
0.580552 0.010613
0.580585 0.01073
0.580619 0.010848
0.580653 0.010966
0.580686 0.011086
0.58072 0.011206
0.580754 0.011328
0.580788 0.01145
0.580821 0.011573
0.580855 0.011698
0.580889 0.011823
0.580923 0.011949
0.580956 0.012076
0.58099 0.01221
0.581024 0.012355
0.581058 0.012502
0.581091 0.012651
0.581125 0.012801
0.581159 0.012954
0.581193 0.013107
0.581226 0.013263
0.58126 0.01342
0.581294 0.013578
0.581328 0.013738
0.581362 0.0139
0.581395 0.014063
0.581429 0.014227
0.581463 0.014393
0.581497 0.01456
0.581531 0.014729
0.581564 0.014899
0.581598 0.015071
0.581632 0.015244
0.581666 0.015418
0.5817 0.015593
0.581734 0.01577
0.581767 0.015948
0.581801 0.016128
0.581835 0.016308
0.581869 0.01649
0.581903 0.016673
0.581937 0.016857
0.581971 0.017043
0.582004 0.01723
0.582038 0.017441
0.582072 0.017655
0.582106 0.017871
0.58214 0.01809
0.582174 0.018311
0.582208 0.018534
0.582242 0.018759
0.582276 0.018986
0.582309 0.019215
0.582343 0.019447
0.582377 0.019681
0.582411 0.019917
0.582445 0.020155
0.582479 0.020395
0.582513 0.020637
0.582547 0.020882
0.582581 0.021128
0.582615 0.021377
0.582649 0.021628
0.582683 0.021881
0.582717 0.022136
0.582751 0.022393
0.582785 0.022653
0.582819 0.022914
0.582852 0.023178
0.582886 0.023444
0.58292 0.023711
0.582954 0.023981
0.582988 0.024253
0.583022 0.024532
0.583056 0.024829
0.58309 0.025146
0.583124 0.025467
0.583158 0.025792
0.583192 0.026121
0.583226 0.026454
0.58326 0.026791
0.583294 0.027132
0.583328 0.027477
0.583363 0.027825
0.583397 0.028177
0.583431 0.028533
0.583465 0.028892
0.583499 0.029255
0.583533 0.029621
0.583567 0.02999
0.583601 0.030363
0.583635 0.03074
0.583669 0.031119
0.583703 0.031502
0.583737 0.031888
0.583771 0.032276
0.583805 0.032668
0.583839 0.033063
0.583873 0.033461
0.583908 0.033862
0.583942 0.034266
0.583976 0.034672
0.58401 0.035082
0.584044 0.035504
0.584078 0.035944
0.584112 0.036402
0.584146 0.036875
0.58418 0.037354
0.584215 0.037839
0.584249 0.038329
0.584283 0.038825
0.584317 0.039326
0.584351 0.039833
0.584385 0.040345
0.584419 0.040862
0.584454 0.041384
0.584488 0.041912
0.584522 0.042444
0.584556 0.042982
0.58459 0.043524
0.584624 0.044072
0.584659 0.044624
0.584693 0.045181
0.584727 0.045743
0.584761 0.046309
0.584795 0.04688
0.58483 0.047456
0.584864 0.048036
0.584898 0.048621
0.584932 0.04921
0.584966 0.049804
0.585001 0.050402
0.585035 0.051009
0.585069 0.051632
0.585103 0.052273
0.585138 0.052936
0.585172 0.053621
0.585206 0.05433
0.58524 0.055056
0.585274 0.055799
0.585309 0.056557
0.585343 0.05733
0.585377 0.058115
0.585412 0.058913
0.585446 0.059721
0.58548 0.060539
0.585514 0.061365
0.585549 0.062199
0.585583 0.063039
0.585617 0.063884
0.585652 0.064733
0.585686 0.065585
0.58572 0.066439
0.585754 0.067293
0.585789 0.068146
0.585823 0.068998
0.585857 0.069846
0.585892 0.070691
0.585926 0.07153
0.58596 0.072363
0.585995 0.073188
0.586029 0.074013
0.586063 0.074845
0.586098 0.075681
0.586132 0.076515
0.586166 0.07734
0.586201 0.07815
0.586235 0.078942
0.58627 0.079716
0.586304 0.08048
0.586338 0.081234
0.586373 0.081981
0.586407 0.08272
0.586441 0.083452
0.586476 0.084178
0.58651 0.084899
0.586545 0.085615
0.586579 0.086328
0.586613 0.087039
0.586648 0.087748
0.586682 0.088455
0.586717 0.089163
0.586751 0.089871
0.586786 0.09058
0.58682 0.091292
0.586854 0.092007
0.586889 0.092726
0.586923 0.093449
0.586958 0.094178
0.586992 0.094914
0.587027 0.095653
0.587061 0.096391
0.587096 0.097127
0.58713 0.097862
0.587165 0.098595
0.587199 0.099328
0.587234 0.10006
0.587268 0.100793
0.587303 0.101526
0.587337 0.10226
0.587372 0.102995
0.587406 0.103731
0.587441 0.10447
0.587475 0.10521
0.58751 0.105954
0.587544 0.1067
0.587579 0.10745
0.587613 0.108204
0.587648 0.108962
0.587682 0.109725
0.587717 0.110492
0.587751 0.111265
0.587786 0.112043
0.58782 0.112828
0.587855 0.113619
0.587889 0.114417
0.587924 0.115221
0.587959 0.116034
0.587993 0.116854
0.588028 0.117734
0.588062 0.118633
0.588097 0.119536
0.588132 0.120443
0.588166 0.121354
0.588201 0.122269
0.588235 0.123189
0.58827 0.124112
0.588305 0.125041
0.588339 0.125974
0.588374 0.126911
0.588408 0.127853
0.588443 0.1288
0.588478 0.129752
0.588512 0.130708
0.588547 0.13167
0.588582 0.132636
0.588616 0.133608
0.588651 0.134585
0.588685 0.135567
0.58872 0.136555
0.588755 0.137548
0.588789 0.138547
0.588824 0.139551
0.588859 0.140561
0.588893 0.141577
0.588928 0.142598
0.588963 0.143626
0.588998 0.144659
0.589032 0.1457
0.589067 0.146751
0.589102 0.14781
0.589136 0.148878
0.589171 0.149955
0.589206 0.151039
0.58924 0.152131
0.589275 0.153231
0.58931 0.154337
0.589345 0.15545
0.589379 0.15657
0.589414 0.157695
0.589449 0.158826
0.589484 0.159963
0.589518 0.161104
0.589553 0.162251
0.589588 0.163401
0.589623 0.164555
0.589657 0.165714
0.589692 0.166875
0.589727 0.16804
0.589762 0.169207
0.589797 0.170376
0.589831 0.171548
0.589866 0.172722
0.589901 0.173906
0.589936 0.175107
0.589971 0.176327
0.590005 0.17757
0.59004 0.178828
0.590075 0.180092
0.59011 0.181362
0.590145 0.182638
0.590179 0.183921
0.590214 0.18521
0.590249 0.186506
0.590284 0.187807
0.590319 0.189115
0.590354 0.190429
0.590388 0.191748
0.590423 0.193074
0.590458 0.194406
0.590493 0.195743
0.590528 0.197086
0.590563 0.198435
0.590598 0.19979
0.590633 0.20115
0.590667 0.202516
0.590702 0.203888
0.590737 0.205265
0.590772 0.206647
0.590807 0.208035
0.590842 0.209429
0.590877 0.210827
0.590912 0.212231
0.590947 0.21364
0.590982 0.215054
0.591017 0.216474
0.591051 0.217903
0.591086 0.219342
0.591121 0.220791
0.591156 0.222248
0.591191 0.223715
0.591226 0.225189
0.591261 0.226672
0.591296 0.228162
0.591331 0.229659
0.591366 0.231163
0.591401 0.232673
0.591436 0.234189
0.591471 0.235711
0.591506 0.237239
0.591541 0.238771
0.591576 0.240307
0.591611 0.241848
0.591646 0.243393
0.591681 0.24494
0.591716 0.246492
0.591751 0.248049
0.591786 0.249614
0.591821 0.251189
0.591856 0.252774
0.591891 0.254372
0.591926 0.255983
0.591961 0.257609
0.591996 0.259252
0.592031 0.260908
0.592066 0.262573
0.592101 0.264246
0.592136 0.265927
0.592171 0.267616
0.592207 0.269313
0.592242 0.271017
0.592277 0.272729
0.592312 0.274447
0.592347 0.276173
0.592382 0.277905
0.592417 0.279643
0.592452 0.281387
0.592487 0.283138
0.592522 0.284894
0.592557 0.286656
0.592593 0.288424
0.592628 0.290197
0.592663 0.291974
0.592698 0.293757
0.592733 0.295544
0.592768 0.297335
0.592803 0.29913
0.592839 0.30093
0.592874 0.302733
0.592909 0.30454
0.592944 0.30635
0.592979 0.308163
0.593014 0.30998
0.593049 0.311805
0.593085 0.31364
0.59312 0.315484
0.593155 0.317335
0.59319 0.319195
0.593225 0.321062
0.593261 0.322936
0.593296 0.324817
0.593331 0.326704
0.593366 0.328596
0.593401 0.330493
0.593437 0.332395
0.593472 0.334301
0.593507 0.336211
0.593542 0.338123
0.593577 0.340039
0.593613 0.341959
0.593648 0.343883
0.593683 0.345813
0.593718 0.347748
0.593754 0.349689
0.593789 0.351637
0.593824 0.353593
0.593859 0.355557
0.593895 0.357529
0.59393 0.359511
0.593965 0.361503
0.594001 0.363505
0.594036 0.365516
0.594071 0.367534
0.594106 0.369559
0.594142 0.37159
0.594177 0.373628
0.594212 0.375671
0.594248 0.377721
0.594283 0.379777
0.594318 0.381838
0.594354 0.383905
0.594389 0.385977
0.594424 0.388054
0.59446 0.390136
0.594495 0.392223
0.59453 0.394314
0.594566 0.396409
0.594601 0.398509
0.594636 0.400612
0.594672 0.402719
0.594707 0.40483
0.594742 0.406944
0.594778 0.409062
0.594813 0.411182
0.594849 0.413305
0.594884 0.415431
0.594919 0.417559
0.594955 0.419689
0.59499 0.421821
0.595026 0.423956
0.595061 0.426096
0.595096 0.428242
0.595132 0.430394
0.595167 0.432554
0.595203 0.434723
0.595238 0.436901
0.595274 0.439089
0.595309 0.441289
0.595344 0.4435
0.59538 0.445725
0.595415 0.447962
0.595451 0.450212
0.595486 0.452473
0.595522 0.454744
0.595557 0.457024
0.595593 0.459312
0.595628 0.461606
0.595664 0.463906
0.595699 0.466211
0.595735 0.468519
0.59577 0.470829
0.595806 0.473141
0.595841 0.475452
0.595877 0.477763
0.595912 0.480071
0.595948 0.482377
0.595983 0.484678
0.596019 0.486975
0.596054 0.48928
0.59609 0.491592
0.596125 0.49391
0.596161 0.496235
0.596196 0.498564
0.596232 0.500898
0.596267 0.503234
0.596303 0.505573
0.596338 0.507913
0.596374 0.510254
0.59641 0.512594
0.596445 0.514933
0.596481 0.51727
0.596516 0.519603
0.596552 0.521933
0.596588 0.524258
0.596623 0.526577
0.596659 0.52889
0.596694 0.531195
0.59673 0.533492
0.596766 0.535779
0.596801 0.538056
0.596837 0.540322
0.596872 0.542576
0.596908 0.544818
0.596944 0.547045
0.596979 0.549258
0.597015 0.551449
0.597051 0.553562
0.597086 0.555629
0.597122 0.55768
0.597158 0.559718
0.597193 0.561741
0.597229 0.563753
0.597265 0.565753
0.5973 0.567742
0.597336 0.569722
0.597372 0.571694
0.597407 0.573657
0.597443 0.575614
0.597479 0.577565
0.597514 0.579512
0.59755 0.581455
0.597586 0.583395
0.597621 0.585333
0.597657 0.58727
0.597693 0.589207
0.597729 0.591145
0.597764 0.593085
0.5978 0.595028
0.597836 0.596975
0.597872 0.598927
0.597907 0.600885
0.597943 0.602849
0.597979 0.604822
0.598015 0.606801
0.59805 0.608774
0.598086 0.610738
0.598122 0.612696
0.598158 0.614649
0.598193 0.616599
0.598229 0.618547
0.598265 0.620495
0.598301 0.622445
0.598337 0.624398
0.598372 0.626356
0.598408 0.628322
0.598444 0.630296
0.59848 0.63228
0.598516 0.634276
0.598552 0.636285
0.598587 0.638311
0.598623 0.640353
0.598659 0.642414
0.598695 0.644495
0.598731 0.646598
0.598767 0.648734
0.598802 0.650908
0.598838 0.653114
0.598874 0.655343
0.59891 0.65759
0.598946 0.659847
0.598982 0.662106
0.599018 0.664363
0.599053 0.666633
0.599089 0.668917
0.599125 0.671214
0.599161 0.673523
0.599197 0.675842
0.599233 0.678169
0.599269 0.680504
0.599305 0.682844
0.599341 0.685187
0.599377 0.687534
0.599413 0.689881
0.599449 0.692228
0.599484 0.694573
0.59952 0.696915
0.599556 0.699251
0.599592 0.701582
0.599628 0.703904
0.599664 0.706216
0.5997 0.708518
0.599736 0.710807
0.599772 0.713082
0.599808 0.715342
0.599844 0.717585
0.59988 0.719809
0.599916 0.722007
0.599952 0.72417
0.599988 0.7263
0.600024 0.728409
0.60006 0.730522
0.600096 0.732638
0.600132 0.734756
0.600168 0.736874
0.600204 0.738991
0.60024 0.741105
0.600276 0.743214
0.600312 0.745317
0.600348 0.747412
0.600384 0.749496
0.60042 0.751569
0.600456 0.753629
0.600492 0.755673
0.600528 0.757701
0.600565 0.75971
0.600601 0.761699
0.600637 0.763667
0.600673 0.76561
0.600709 0.767529
0.600745 0.76942
0.600781 0.771283
0.600817 0.773115
0.600853 0.77491
0.600889 0.776655
0.600925 0.778349
0.600962 0.779992
0.600998 0.781586
0.601034 0.783152
0.60107 0.784716
0.601106 0.786275
0.601142 0.787828
0.601178 0.789372
0.601214 0.790907
0.601251 0.79243
0.601287 0.793939
0.601323 0.795433
0.601359 0.796909
0.601395 0.798366
0.601431 0.799802
0.601468 0.801215
0.601504 0.802603
0.60154 0.803964
0.601576 0.805296
0.601612 0.806598
0.601649 0.807867
0.601685 0.809102
0.601721 0.810301
0.601757 0.811462
0.601793 0.812582
0.60183 0.813653
0.601866 0.814677
0.601902 0.815658
0.601938 0.816598
0.601974 0.8175
0.602011 0.818369
0.602047 0.81922
0.602083 0.820057
0.602119 0.820881
0.602156 0.821692
0.602192 0.822489
0.602228 0.823273
0.602265 0.824045
0.602301 0.824803
0.602337 0.825549
0.602373 0.826282
0.60241 0.827003
0.602446 0.827711
0.602482 0.828407
0.602519 0.829091
0.602555 0.829763
0.602591 0.830423
0.602627 0.83107
0.602664 0.831707
0.6027 0.832331
0.602736 0.832943
0.602773 0.83354
0.602809 0.83412
0.602845 0.834683
0.602882 0.835228
0.602918 0.835755
0.602954 0.836263
0.602991 0.836751
0.603027 0.837225
0.603064 0.837695
0.6031 0.838162
0.603136 0.838625
0.603173 0.839082
0.603209 0.839533
0.603245 0.839977
0.603282 0.840412
0.603318 0.840837
0.603355 0.841252
0.603391 0.841656
0.603427 0.842047
0.603464 0.842424
0.6035 0.842787
0.603537 0.843134
0.603573 0.843465
0.60361 0.843778
0.603646 0.844072
0.603682 0.844347
0.603719 0.844604
0.603755 0.844845
0.603792 0.845074
0.603828 0.845291
0.603865 0.845501
0.603901 0.845704
0.603938 0.845904
0.603974 0.846104
0.604011 0.846304
0.604047 0.846502
0.604084 0.846697
0.60412 0.846889
0.604157 0.847078
0.604193 0.847264
0.60423 0.847447
0.604266 0.847628
0.604303 0.847808
0.604339 0.847985
0.604376 0.848161
0.604412 0.848335
0.604449 0.848509
0.604485 0.848681
0.604522 0.848853
0.604558 0.849024
0.604595 0.849194
0.604631 0.849365
0.604668 0.849537
0.604705 0.849707
0.604741 0.849877
0.604778 0.850045
0.604814 0.850211
0.604851 0.850375
0.604887 0.850534
0.604924 0.85069
0.604961 0.850842
0.604997 0.850988
0.605034 0.851131
0.60507 0.851272
0.605107 0.851411
0.605144 0.851549
0.60518 0.851684
0.605217 0.851817
0.605254 0.851948
0.60529 0.852076
0.605327 0.852201
0.605364 0.852323
0.6054 0.852442
0.605437 0.852557
0.605473 0.852669
0.60551 0.852777
0.605547 0.85288
0.605583 0.852978
0.60562 0.85307
0.605657 0.853157
0.605694 0.85324
0.60573 0.85332
0.605767 0.853399
0.605804 0.853478
0.60584 0.853558
0.605877 0.85364
0.605914 0.853724
0.60595 0.853813
0.605987 0.853908
0.606024 0.854008
0.606061 0.854111
0.606097 0.854216
0.606134 0.854325
0.606171 0.854436
0.606208 0.854551
0.606244 0.854668
0.606281 0.854789
0.606318 0.854913
0.606355 0.85504
0.606391 0.855171
0.606428 0.855305
0.606465 0.855443
0.606502 0.855586
0.606538 0.855735
0.606575 0.855892
0.606612 0.856056
0.606649 0.856226
0.606686 0.856401
0.606722 0.856579
0.606759 0.856762
0.606796 0.856947
0.606833 0.857133
0.60687 0.857321
0.606907 0.857509
0.606943 0.857696
0.60698 0.857882
0.607017 0.858067
0.607054 0.858254
0.607091 0.858445
0.607128 0.858639
0.607165 0.858834
0.607201 0.85903
0.607238 0.859226
0.607275 0.859421
0.607312 0.859615
0.607349 0.859806
0.607386 0.859993
0.607423 0.860177
0.60746 0.860356
0.607497 0.860534
0.607533 0.860709
0.60757 0.860882
0.607607 0.861053
0.607644 0.861223
0.607681 0.861391
0.607718 0.861559
0.607755 0.861726
0.607792 0.861892
0.607829 0.862059
0.607866 0.862225
0.607903 0.862391
0.60794 0.862558
0.607977 0.862726
0.608014 0.862894
0.608051 0.863061
0.608088 0.863226
0.608125 0.863391
0.608162 0.863555
0.608199 0.86372
0.608236 0.863886
0.608273 0.864054
0.60831 0.864224
0.608347 0.864398
0.608384 0.864575
0.608421 0.864755
0.608458 0.864939
0.608495 0.865126
0.608532 0.865315
0.608569 0.865506
0.608606 0.865698
0.608643 0.865892
0.60868 0.866088
0.608717 0.866283
0.608754 0.866479
0.608791 0.866675
0.608828 0.866871
0.608865 0.867066
0.608902 0.86726
0.608939 0.867452
0.608976 0.867643
0.609013 0.867831
0.60905 0.868021
0.609088 0.868211
0.609125 0.868402
0.609162 0.868591
0.609199 0.868778
0.609236 0.868961
0.609273 0.86914
0.60931 0.869314
0.609347 0.869483
0.609385 0.869649
0.609422 0.869814
0.609459 0.869976
0.609496 0.870136
0.609533 0.870294
0.60957 0.870451
0.609607 0.870605
0.609645 0.870759
0.609682 0.87091
0.609719 0.871061
0.609756 0.87121
0.609793 0.871358
0.60983 0.871505
0.609868 0.871651
0.609905 0.871796
0.609942 0.871941
0.609979 0.872085
0.610016 0.872228
0.610054 0.872371
0.610091 0.872512
0.610128 0.87265
0.610165 0.872787
0.610203 0.87292
0.61024 0.87305
0.610277 0.873176
0.610314 0.873298
0.610352 0.873418
0.610389 0.873536
0.610426 0.873652
0.610463 0.873766
0.610501 0.873878
0.610538 0.873989
0.610575 0.874099
0.610612 0.874208
0.61065 0.874317
0.610687 0.874426
0.610724 0.874536
0.610762 0.874645
0.610799 0.874756
0.610836 0.874867
0.610874 0.87498
0.610911 0.875094
0.610948 0.87521
0.610986 0.875329
0.611023 0.87545
0.61106 0.875572
0.611098 0.875697
0.611135 0.875824
0.611172 0.875952
0.61121 0.876082
0.611247 0.876216
0.611284 0.876353
0.611322 0.876494
0.611359 0.876637
0.611396 0.876782
0.611434 0.876929
0.611471 0.877077
0.611509 0.877226
0.611546 0.877375
0.611583 0.877523
0.611621 0.87767
0.611658 0.877816
0.611696 0.87796
0.611733 0.878102
0.61177 0.87824
0.611808 0.878375
0.611845 0.878506
0.611883 0.878633
0.61192 0.878754
0.611958 0.87887
0.611995 0.87898
0.612033 0.879081
0.61207 0.879173
0.612107 0.879262
0.612145 0.879352
0.612182 0.879444
0.61222 0.879535
0.612257 0.879625
0.612295 0.879714
0.612332 0.879803
0.61237 0.879891
0.612407 0.879979
0.612445 0.880067
0.612482 0.880155
0.61252 0.880244
0.612557 0.880332
0.612595 0.880421
0.612632 0.880511
0.61267 0.880601
0.612708 0.880692
0.612745 0.880784
0.612783 0.880877
0.61282 0.880972
0.612858 0.881067
0.612895 0.881164
0.612933 0.881263
0.61297 0.881364
0.613008 0.881467
0.613046 0.881581
0.613083 0.881686
0.613121 0.881778
0.613158 0.881868
0.613196 0.881954
0.613234 0.882039
0.613271 0.88212
0.613309 0.8822
0.613346 0.882278
0.613384 0.882354
0.613422 0.882429
0.613459 0.882501
0.613497 0.882573
0.613535 0.882644
0.613572 0.882713
0.61361 0.882782
0.613648 0.882851
0.613685 0.882918
0.613723 0.882986
0.613761 0.883054
0.613798 0.883121
0.613836 0.883189
0.613874 0.883257
0.613911 0.883326
0.613949 0.883396
0.613987 0.883466
0.614024 0.883536
0.614062 0.883606
0.6141 0.883675
0.614137 0.883742
0.614175 0.883808
0.614213 0.883874
0.614251 0.883939
0.614288 0.884003
0.614326 0.884068
0.614364 0.884133
0.614402 0.884198
0.614439 0.884263
0.614477 0.884329
0.614515 0.884396
0.614553 0.884464
0.61459 0.884534
0.614628 0.884604
0.614666 0.884677
0.614704 0.884751
0.614742 0.884828
0.614779 0.884907
0.614817 0.884988
0.614855 0.885072
0.614893 0.885159
0.614931 0.885249
0.614968 0.885343
0.615006 0.88546
0.615044 0.885581
0.615082 0.885705
0.61512 0.885832
0.615157 0.885962
0.615195 0.886094
0.615233 0.886227
0.615271 0.886363
0.615309 0.8865
0.615347 0.886638
0.615385 0.886776
0.615422 0.886916
0.61546 0.887055
0.615498 0.887195
0.615536 0.887334
0.615574 0.887473
0.615612 0.88761
0.61565 0.887747
0.615688 0.887882
0.615726 0.888015
0.615764 0.888146
0.615801 0.888275
0.615839 0.888402
0.615877 0.888525
0.615915 0.888645
0.615953 0.888759
0.615991 0.88887
0.616029 0.888981
0.616067 0.889089
0.616105 0.889194
0.616143 0.889297
0.616181 0.889399
0.616219 0.889499
0.616257 0.889599
0.616295 0.889698
0.616333 0.889797
0.616371 0.889896
0.616409 0.889996
0.616447 0.890097
0.616485 0.890199
0.616523 0.890303
0.616561 0.89041
0.616599 0.890519
0.616637 0.890631
0.616675 0.890746
0.616713 0.890866
0.616751 0.890989
0.616789 0.891117
0.616827 0.89125
0.616865 0.891391
0.616903 0.891548
0.616941 0.891717
0.616979 0.891894
0.617017 0.892075
0.617055 0.89226
0.617093 0.892451
0.617132 0.892646
0.61717 0.892845
0.617208 0.893049
0.617246 0.893255
0.617284 0.893465
0.617322 0.893677
0.61736 0.893892
0.617398 0.894109
0.617436 0.894327
0.617475 0.894546
0.617513 0.894766
0.617551 0.894986
0.617589 0.895206
0.617627 0.895426
0.617665 0.895645
0.617703 0.895862
0.617742 0.896078
0.61778 0.896292
0.617818 0.896503
0.617856 0.896713
0.617894 0.896924
0.617932 0.897137
0.617971 0.897355
0.618009 0.89758
0.618047 0.89781
0.618085 0.898042
0.618123 0.898277
0.618162 0.898516
0.6182 0.898756
0.618238 0.898999
0.618276 0.899245
0.618314 0.899492
0.618353 0.899742
0.618391 0.899993
0.618429 0.900247
0.618467 0.900501
0.618506 0.900758
0.618544 0.901015
0.618582 0.901274
0.61862 0.901534
0.618659 0.901795
0.618697 0.902057
0.618735 0.902319
0.618774 0.902584
0.618812 0.902853
0.61885 0.903124
0.618888 0.903399
0.618927 0.903675
0.618965 0.903954
0.619003 0.904235
0.619042 0.904519
0.61908 0.904805
0.619118 0.905093
0.619157 0.905384
0.619195 0.905677
0.619233 0.905971
0.619272 0.906266
0.61931 0.906563
0.619348 0.90686
0.619387 0.907158
0.619425 0.907456
0.619464 0.907754
0.619502 0.908052
0.61954 0.908349
0.619579 0.908645
0.619617 0.908941
0.619655 0.909234
0.619694 0.909528
0.619732 0.909821
0.619771 0.910116
0.619809 0.910409
0.619848 0.910703
0.619886 0.910995
0.619924 0.911285
0.619963 0.911574
0.620001 0.911859
0.62004 0.912143
0.620078 0.912427
0.620117 0.91271
0.620155 0.912992
0.620194 0.913274
0.620232 0.913554
0.62027 0.913833
0.620309 0.914111
0.620347 0.914387
0.620386 0.914662
0.620424 0.914935
0.620463 0.915206
0.620501 0.915475
0.62054 0.915741
0.620578 0.916005
0.620617 0.916266
0.620655 0.916525
0.620694 0.916782
0.620732 0.917036
0.620771 0.917287
0.62081 0.917537
0.620848 0.917785
0.620887 0.91803
0.620925 0.918274
0.620964 0.918516
0.621002 0.918756
0.621041 0.918995
0.621079 0.919233
0.621118 0.91947
0.621157 0.919706
0.621195 0.919941
0.621234 0.920174
0.621272 0.920406
0.621311 0.920636
0.62135 0.920863
0.621388 0.921089
0.621427 0.921312
0.621465 0.921533
0.621504 0.921752
0.621543 0.921967
0.621581 0.922181
0.62162 0.922394
0.621659 0.922606
0.621697 0.922816
0.621736 0.923023
0.621775 0.923229
0.621813 0.923431
0.621852 0.92363
0.621891 0.923824
0.621929 0.924015
0.621968 0.924201
0.622007 0.924382
0.622045 0.924558
0.622084 0.924731
0.622123 0.9249
0.622161 0.925066
0.6222 0.925229
0.622239 0.925389
0.622278 0.925547
0.622316 0.925703
0.622355 0.925857
0.622394 0.926009
0.622432 0.92616
0.622471 0.926309
0.62251 0.926458
0.622549 0.926608
0.622587 0.926757
0.622626 0.926906
0.622665 0.927053
0.622704 0.927199
0.622743 0.927342
0.622781 0.927483
0.62282 0.92762
0.622859 0.927754
0.622898 0.927883
0.622937 0.928007
0.622975 0.928125
0.623014 0.928238
0.623053 0.928348
0.623092 0.928456
0.623131 0.928561
0.623169 0.928663
0.623208 0.928762
0.623247 0.928857
0.623286 0.928947
0.623325 0.929033
0.623364 0.929113
0.623403 0.929187
0.623441 0.929254
0.62348 0.929317
0.623519 0.929375
0.623558 0.92943
0.623597 0.929481
0.623636 0.92953
0.623675 0.929577
0.623714 0.929623
0.623752 0.929668
0.623791 0.929714
0.62383 0.92976
0.623869 0.929807
0.623908 0.929857
0.623947 0.929909
0.623986 0.929965
0.624025 0.930023
0.624064 0.930083
0.624103 0.930145
0.624142 0.930208
0.624181 0.930273
0.62422 0.930341
0.624259 0.93041
0.624298 0.930483
0.624337 0.930558
0.624376 0.930637
0.624415 0.93072
0.624454 0.930808
0.624493 0.9309
0.624532 0.930995
0.624571 0.931094
0.62461 0.931195
0.624649 0.931298
0.624688 0.931404
0.624727 0.93151
0.624766 0.931618
0.624805 0.931725
0.624844 0.931833
0.624883 0.93194
0.624922 0.932046
0.624961 0.932151
0.625 0.932254
0.625039 0.932362
0.625078 0.93248
0.625117 0.932602
0.625156 0.932721
0.625195 0.932832
0.625234 0.932928
0.625274 0.933003
0.625313 0.933053
0.625352 0.933095
0.625391 0.933135
0.62543 0.933174
0.625469 0.933211
0.625508 0.933246
0.625547 0.933279
0.625586 0.93331
0.625626 0.933338
0.625665 0.933365
0.625704 0.933388
0.625743 0.93341
0.625782 0.933428
0.625821 0.933444
0.625861 0.933457
0.6259 0.933467
0.625939 0.933474
0.625978 0.933477
0.626017 0.933477
0.626056 0.933472
0.626096 0.933464
0.626135 0.933454
0.626174 0.933444
0.626213 0.933438
0.626253 0.933437
0.626292 0.933439
0.626331 0.933443
0.62637 0.933449
0.626409 0.933456
0.626449 0.933466
0.626488 0.933477
0.626527 0.933491
0.626566 0.933505
0.626606 0.933521
0.626645 0.933539
0.626684 0.933558
0.626723 0.933578
0.626763 0.933599
0.626802 0.933622
0.626841 0.933645
0.626881 0.933669
0.62692 0.933695
0.626959 0.93372
0.626999 0.933747
0.627038 0.933781
0.627077 0.933829
0.627117 0.933882
0.627156 0.933936
0.627195 0.933985
0.627235 0.93403
0.627274 0.934073
0.627313 0.934114
0.627353 0.934154
0.627392 0.934193
0.627431 0.934232
0.627471 0.93427
0.62751 0.934308
0.627549 0.934347
0.627589 0.934386
0.627628 0.934427
0.627668 0.934469
0.627707 0.934512
0.627746 0.934558
0.627786 0.934606
0.627825 0.934657
0.627865 0.934711
0.627904 0.934769
0.627943 0.93483
0.627983 0.934895
0.628022 0.934969
0.628062 0.935063
0.628101 0.935174
0.628141 0.935295
0.62818 0.935425
0.62822 0.935562
0.628259 0.935708
0.628299 0.935861
0.628338 0.93602
0.628378 0.936186
0.628417 0.936358
0.628457 0.936535
0.628496 0.936717
0.628536 0.936904
0.628575 0.937094
0.628615 0.937287
0.628654 0.937483
0.628694 0.937682
0.628733 0.937882
0.628773 0.938083
0.628812 0.938285
0.628852 0.938488
0.628891 0.93869
0.628931 0.938892
0.62897 0.939092
0.62901 0.939291
0.62905 0.939502
0.629089 0.939714
0.629129 0.939927
0.629168 0.94014
0.629208 0.940355
0.629247 0.94057
0.629287 0.940786
0.629327 0.941003
0.629366 0.94122
0.629406 0.941437
0.629445 0.941654
0.629485 0.941872
0.629525 0.942089
0.629564 0.942307
0.629604 0.942524
0.629644 0.942741
0.629683 0.942957
0.629723 0.943173
0.629763 0.943388
0.629802 0.943602
0.629842 0.943815
0.629882 0.944027
0.629921 0.944238
0.629961 0.944448
0.630001 0.944656
0.63004 0.944861
0.63008 0.945067
0.63012 0.945274
0.630159 0.945481
0.630199 0.945688
0.630239 0.945896
0.630279 0.946104
0.630318 0.946312
0.630358 0.946521
0.630398 0.946729
0.630438 0.946937
0.630477 0.947145
0.630517 0.947352
0.630557 0.947559
0.630597 0.947765
0.630636 0.94797
0.630676 0.948175
0.630716 0.948379
0.630756 0.948581
0.630795 0.948783
0.630835 0.948983
0.630875 0.949182
0.630915 0.949379
0.630955 0.949575
0.630994 0.949764
0.631034 0.949945
0.631074 0.950124
0.631114 0.950301
0.631154 0.950476
0.631194 0.95065
0.631233 0.950822
0.631273 0.950993
0.631313 0.951162
0.631353 0.95133
0.631393 0.951497
0.631433 0.951662
0.631473 0.951827
0.631512 0.951991
0.631552 0.952154
0.631592 0.952316
0.631632 0.952478
0.631672 0.952639
0.631712 0.9528
0.631752 0.95296
0.631792 0.95312
0.631832 0.95328
0.631872 0.95344
0.631912 0.953597
0.631951 0.95375
0.631991 0.953907
0.632031 0.954071
0.632071 0.954243
0.632111 0.95442
0.632151 0.954602
0.632191 0.954789
0.632231 0.954978
0.632271 0.95517
0.632311 0.955362
0.632351 0.955555
0.632391 0.955748
0.632431 0.955939
0.632471 0.956127
0.632511 0.956312
0.632551 0.956493
0.632591 0.956668
0.632631 0.956838
0.632671 0.957
0.632711 0.957154
0.632751 0.9573
0.632791 0.957435
0.632831 0.95756
0.632871 0.957672
0.632911 0.957776
0.632951 0.957875
0.632992 0.957973
0.633032 0.958072
0.633072 0.958167
0.633112 0.95826
0.633152 0.958351
0.633192 0.95844
0.633232 0.958527
0.633272 0.958614
0.633312 0.9587
0.633352 0.958786
0.633392 0.958872
0.633433 0.958958
0.633473 0.959045
0.633513 0.959134
0.633553 0.959224
0.633593 0.959316
0.633633 0.959411
0.633673 0.959508
0.633714 0.959608
0.633754 0.959712
0.633794 0.95982
0.633834 0.959932
0.633874 0.960047
0.633914 0.960167
0.633955 0.960291
0.633995 0.96042
0.634035 0.960554
0.634075 0.960695
0.634115 0.960843
0.634156 0.960996
0.634196 0.961154
0.634236 0.961315
0.634276 0.961479
0.634317 0.961645
0.634357 0.961811
0.634397 0.961976
0.634437 0.962141
0.634478 0.962303
0.634518 0.962462
0.634558 0.962617
0.634598 0.962766
0.634639 0.96291
0.634679 0.963046
0.634719 0.963175
0.634759 0.963298
0.6348 0.963416
0.63484 0.963531
0.63488 0.963644
0.634921 0.963757
0.634961 0.963869
0.635001 0.963984
0.635042 0.964099
0.635082 0.964211
0.635122 0.964322
0.635163 0.964431
0.635203 0.96454
0.635243 0.964649
0.635284 0.964758
0.635324 0.964867
0.635364 0.964978
0.635405 0.96509
0.635445 0.965205
0.635486 0.965322
0.635526 0.965443
0.635566 0.965566
0.635607 0.965694
0.635647 0.965827
0.635687 0.965967
0.635728 0.966113
0.635768 0.966264
0.635809 0.966418
0.635849 0.966575
0.63589 0.966733
0.63593 0.96689
0.63597 0.967047
0.636011 0.967202
0.636051 0.96736
0.636092 0.967522
0.636132 0.967688
0.636173 0.967856
0.636213 0.968025
0.636254 0.968193
0.636294 0.96836
0.636335 0.968523
0.636375 0.968683
0.636416 0.968836
0.636456 0.968983
0.636497 0.969122
0.636537 0.969252
0.636578 0.969372
0.636618 0.969487
0.636659 0.969598
0.636699 0.969706
0.63674 0.96981
0.63678 0.96991
0.636821 0.970006
0.636862 0.970096
0.636902 0.970182
0.636943 0.970263
0.636983 0.970338
0.637024 0.970407
0.637064 0.970472
0.637105 0.970532
0.637146 0.970589
0.637186 0.970643
0.637227 0.970695
0.637267 0.970745
0.637308 0.970794
0.637349 0.970844
0.637389 0.970893
0.63743 0.970944
0.637471 0.970996
0.637511 0.971051
0.637552 0.971112
0.637592 0.971177
0.637633 0.971245
0.637674 0.971314
0.637714 0.971383
0.637755 0.971451
0.637796 0.971515
0.637836 0.971575
0.637877 0.971627
0.637918 0.971672
0.637959 0.971707
0.637999 0.97173
0.63804 0.971746
0.638081 0.971762
0.638121 0.971777
0.638162 0.97179
0.638203 0.971802
0.638244 0.971813
0.638284 0.971822
0.638325 0.971829
0.638366 0.971834
0.638407 0.971837
0.638447 0.971838
0.638488 0.971833
0.638529 0.971822
0.63857 0.971806
0.63861 0.971786
0.638651 0.971761
0.638692 0.971733
0.638733 0.971702
0.638774 0.971668
0.638814 0.971631
0.638855 0.971594
0.638896 0.971555
0.638937 0.971515
0.638978 0.971475
0.639018 0.971435
0.639059 0.97139
0.6391 0.97134
0.639141 0.971284
0.639182 0.971224
0.639223 0.971158
0.639264 0.971089
0.639304 0.971016
0.639345 0.970939
0.639386 0.970854
0.639427 0.970756
0.639468 0.970648
0.639509 0.970531
0.63955 0.970406
0.639591 0.970275
0.639632 0.970139
0.639672 0.97
0.639713 0.96986
0.639754 0.96972
0.639795 0.969582
0.639836 0.969447
0.639877 0.969317
0.639918 0.969193
0.639959 0.969077
0.64 0.968971
0.640041 0.96887
0.640082 0.96877
0.640123 0.968675
0.640164 0.968585
0.640205 0.968503
0.640246 0.968431
0.640287 0.968368
0.640328 0.968306
0.640369 0.968247
0.64041 0.968189
0.640451 0.968133
0.640492 0.968079
0.640533 0.968027
0.640574 0.967977
0.640615 0.967929
0.640656 0.967883
0.640697 0.967839
0.640738 0.967798
0.640779 0.967759
0.64082 0.967723
0.640861 0.967689
0.640902 0.967658
0.640943 0.96763
0.640985 0.967604
0.641026 0.967582
0.641067 0.967564
0.641108 0.967549
0.641149 0.967532
0.64119 0.96751
0.641231 0.967485
0.641272 0.967457
0.641313 0.967426
0.641355 0.967392
0.641396 0.967357
0.641437 0.967321
0.641478 0.967284
0.641519 0.967246
0.64156 0.967209
0.641601 0.967172
0.641643 0.967136
0.641684 0.967102
0.641725 0.967071
0.641766 0.967042
0.641807 0.967016
0.641849 0.966994
0.64189 0.966976
0.641931 0.966963
0.641972 0.966954
0.642013 0.966952
0.642055 0.966951
0.642096 0.966954
0.642137 0.966974
0.642178 0.967011
0.64222 0.967063
0.642261 0.967129
0.642302 0.967209
0.642343 0.967302
0.642385 0.967406
0.642426 0.96752
0.642467 0.967643
0.642508 0.967774
0.64255 0.967912
0.642591 0.968056
0.642632 0.968206
0.642674 0.968358
0.642715 0.968514
0.642756 0.968671
0.642797 0.968829
0.642839 0.968986
0.64288 0.969142
0.642921 0.969295
0.642963 0.969444
0.643004 0.969605
0.643045 0.969794
0.643087 0.969992
0.643128 0.970197
0.64317 0.97041
0.643211 0.97063
0.643252 0.970855
0.643294 0.971084
0.643335 0.971318
0.643376 0.971556
0.643418 0.971795
0.643459 0.972037
0.643501 0.97228
0.643542 0.972523
0.643583 0.972765
0.643625 0.973006
0.643666 0.973245
0.643708 0.973481
0.643749 0.973714
0.643791 0.973942
0.643832 0.974165
0.643874 0.974382
0.643915 0.974591
0.643956 0.974794
0.643998 0.974995
0.644039 0.975197
0.644081 0.975397
0.644122 0.975594
0.644164 0.975789
0.644205 0.975984
0.644247 0.976178
0.644288 0.976371
0.64433 0.976564
0.644371 0.976759
0.644413 0.976954
0.644454 0.977151
0.644496 0.97735
0.644538 0.977551
0.644579 0.977756
0.644621 0.977963
0.644662 0.978175
0.644704 0.978391
0.644745 0.978612
0.644787 0.978838
0.644828 0.979075
0.64487 0.979328
0.644912 0.979588
0.644953 0.979847
0.644995 0.980097
0.645036 0.980338
0.645078 0.980582
0.64512 0.980826
0.645161 0.981072
0.645203 0.981316
0.645245 0.98156
0.645286 0.981802
0.645328 0.982041
0.645369 0.982276
0.645411 0.982507
0.645453 0.982732
0.645494 0.982951
0.645536 0.983163
0.645578 0.983368
0.645619 0.983563
0.645661 0.98375
0.645703 0.983925
0.645745 0.984091
0.645786 0.984249
0.645828 0.9844
0.64587 0.984543
0.645911 0.984681
0.645953 0.984813
0.645995 0.984941
0.646037 0.985067
0.646078 0.985196
0.64612 0.985325
0.646162 0.985455
0.646204 0.985583
0.646245 0.985708
0.646287 0.98583
0.646329 0.985947
0.646371 0.986057
0.646412 0.986159
0.646454 0.986253
0.646496 0.986337
0.646538 0.98641
0.64658 0.98647
0.646621 0.986518
0.646663 0.986563
0.646705 0.986606
0.646747 0.986647
0.646789 0.986685
0.646831 0.986718
0.646872 0.986746
0.646914 0.986767
0.646956 0.986781
0.646998 0.986786
0.64704 0.986784
0.647082 0.98678
0.647124 0.986773
0.647165 0.986763
0.647207 0.986751
0.647249 0.986737
0.647291 0.986721
0.647333 0.986703
0.647375 0.986684
0.647417 0.986664
0.647459 0.986643
0.647501 0.986621
0.647543 0.986597
0.647585 0.986566
0.647626 0.986529
0.647668 0.986485
0.64771 0.986437
0.647752 0.986384
0.647794 0.986327
0.647836 0.986267
0.647878 0.986204
0.64792 0.986139
0.647962 0.986071
0.648004 0.986003
0.648046 0.98593
0.648088 0.985849
0.64813 0.985761
0.648172 0.985666
0.648214 0.985567
0.648256 0.985462
0.648298 0.985355
0.64834 0.985244
0.648382 0.985131
0.648424 0.985017
0.648466 0.984899
0.648508 0.984777
0.64855 0.98465
0.648593 0.984519
0.648635 0.984385
0.648677 0.984247
0.648719 0.984105
0.648761 0.98396
0.648803 0.983812
0.648845 0.983661
0.648887 0.983507
0.648929 0.98335
0.648971 0.983192
0.649013 0.98303
0.649056 0.982864
0.649098 0.982692
0.64914 0.982514
0.649182 0.982331
0.649224 0.982142
0.649266 0.981947
0.649308 0.981747
0.649351 0.98154
0.649393 0.981322
0.649435 0.981095
0.649477 0.98086
0.649519 0.980619
0.649562 0.980372
0.649604 0.980121
0.649646 0.979868
0.649688 0.979614
0.64973 0.979359
0.649773 0.979107
0.649815 0.978857
0.649857 0.978612
0.649899 0.978372
0.649942 0.97814
0.649984 0.977915
0.650026 0.977699
0.650068 0.977486
0.650111 0.977277
0.650153 0.977077
0.650195 0.976887
0.650237 0.976711
0.65028 0.976543
0.650322 0.976382
0.650364 0.976226
0.650407 0.976075
0.650449 0.975928
0.650491 0.975785
0.650533 0.975645
0.650576 0.975507
0.650618 0.975372
0.65066 0.975238
0.650703 0.975104
0.650745 0.97497
0.650787 0.974836
0.65083 0.974701
0.650872 0.974564
0.650915 0.974425
0.650957 0.974282
0.650999 0.974137
0.651042 0.973989
0.651084 0.97384
0.651126 0.973685
0.651169 0.973524
0.651211 0.973359
0.651254 0.97319
0.651296 0.973018
0.651339 0.972844
0.651381 0.972667
0.651423 0.972488
0.651466 0.972307
0.651508 0.972125
0.651551 0.971942
0.651593 0.971758
0.651636 0.971574
0.651678 0.97139
0.651721 0.971207
0.651763 0.971024
0.651806 0.970842
0.651848 0.970661
0.65189 0.970483
0.651933 0.970306
0.651975 0.970132
0.652018 0.96996
0.652061 0.969798
0.652103 0.969633
0.652146 0.969462
0.652188 0.969287
0.652231 0.969109
0.652273 0.968929
0.652316 0.968749
0.652358 0.96857
0.652401 0.968393
0.652443 0.968219
0.652486 0.968049
0.652529 0.967886
0.652571 0.967729
0.652614 0.96758
0.652656 0.967442
0.652699 0.967314
0.652742 0.967198
0.652784 0.967095
0.652827 0.967007
0.652869 0.966934
0.652912 0.966879
0.652955 0.966841
0.652997 0.966819
0.65304 0.96681
0.653083 0.966802
0.653125 0.966795
0.653168 0.966789
0.653211 0.966784
0.653253 0.96678
0.653296 0.966777
0.653339 0.966774
0.653381 0.966772
0.653424 0.966769
0.653467 0.966767
0.653509 0.966764
0.653552 0.966762
0.653595 0.966758
0.653637 0.966754
0.65368 0.96675
0.653723 0.966744
0.653766 0.966737
0.653808 0.966729
0.653851 0.96672
0.653894 0.9667
0.653937 0.966671
0.653979 0.966639
0.654022 0.966606
0.654065 0.966569
0.654108 0.966527
0.654151 0.966481
0.654193 0.966431
0.654236 0.966379
0.654279 0.966326
0.654322 0.966272
0.654365 0.966219
0.654407 0.966168
0.65445 0.966119
0.654493 0.966073
0.654536 0.966032
0.654579 0.965996
0.654622 0.965967
0.654664 0.965945
0.654707 0.965931
0.65475 0.965927
0.654793 0.965949
0.654836 0.966006
0.654879 0.966089
0.654922 0.966188
0.654965 0.966293
0.655008 0.966397
0.65505 0.966513
0.655093 0.966648
0.655136 0.966799
0.655179 0.966965
0.655222 0.967142
0.655265 0.96733
0.655308 0.967524
0.655351 0.967722
0.655394 0.967923
0.655437 0.968124
0.65548 0.968321
0.655523 0.968514
0.655566 0.968699
0.655609 0.968874
0.655652 0.969036
0.655695 0.969188
0.655738 0.969334
0.655781 0.969476
0.655824 0.969615
0.655867 0.969753
0.65591 0.96989
0.655953 0.970029
0.655996 0.970169
0.656039 0.970311
0.656082 0.970449
0.656125 0.970585
0.656168 0.970721
0.656211 0.970856
0.656254 0.970992
0.656297 0.971129
0.65634 0.971269
0.656383 0.971412
0.656426 0.97156
0.65647 0.971712
0.656513 0.971871
0.656556 0.972036
0.656599 0.97221
0.656642 0.972394
0.656685 0.972587
0.656728 0.972787
0.656771 0.972992
0.656814 0.973201
0.656858 0.973414
0.656901 0.973627
0.656944 0.97384
0.656987 0.974052
0.65703 0.974262
0.657073 0.974475
0.657117 0.974691
0.65716 0.974909
0.657203 0.975128
0.657246 0.975348
0.657289 0.975569
0.657333 0.975788
0.657376 0.976007
0.657419 0.976225
0.657462 0.976439
0.657505 0.976654
0.657549 0.97687
0.657592 0.977087
0.657635 0.977305
0.657678 0.977521
0.657722 0.977737
0.657765 0.97795
0.657808 0.978161
0.657851 0.97837
0.657895 0.978574
0.657938 0.978774
0.657981 0.978969
0.658025 0.979159
0.658068 0.979349
0.658111 0.979537
0.658155 0.979721
0.658198 0.979901
0.658241 0.980075
0.658285 0.980241
0.658328 0.980397
0.658371 0.980544
0.658415 0.980683
0.658458 0.980819
0.658501 0.980951
0.658545 0.98108
0.658588 0.981204
0.658631 0.981326
0.658675 0.981444
0.658718 0.981558
0.658762 0.98167
0.658805 0.981779
0.658848 0.981885
0.658892 0.981988
0.658935 0.982089
0.658979 0.982187
0.659022 0.982282
0.659065 0.982367
0.659109 0.982447
0.659152 0.982525
0.659196 0.982605
0.659239 0.982693
0.659283 0.982793
0.659326 0.982907
0.65937 0.983034
0.659413 0.983171
0.659457 0.983317
0.6595 0.98347
0.659544 0.983627
0.659587 0.983787
0.659631 0.983948
0.659674 0.984108
0.659718 0.984264
0.659761 0.984415
0.659805 0.984559
0.659848 0.984694
0.659892 0.984817
0.659935 0.984927
0.659979 0.985022
0.660022 0.985103
0.660066 0.985185
0.66011 0.985254
0.660153 0.985293
0.660197 0.985293
0.66024 0.985282
0.660284 0.985262
0.660328 0.985234
0.660371 0.985199
0.660415 0.985157
0.660458 0.98511
0.660502 0.985059
0.660546 0.985003
0.660589 0.984945
0.660633 0.984884
0.660677 0.984822
0.66072 0.98476
0.660764 0.984697
0.660808 0.984636
0.660851 0.984576
0.660895 0.98452
0.660939 0.984466
0.660982 0.984417
0.661026 0.984367
0.66107 0.98433
0.661113 0.984334
0.661157 0.984344
0.661201 0.984362
0.661244 0.984385
0.661288 0.984414
0.661332 0.984449
0.661376 0.98449
0.661419 0.984535
0.661463 0.984585
0.661507 0.98464
0.661551 0.984698
0.661594 0.98476
0.661638 0.984825
0.661682 0.984894
0.661726 0.984965
0.66177 0.985038
0.661813 0.985114
0.661857 0.985191
0.661901 0.98527
0.661945 0.98535
0.661989 0.985439
0.662032 0.985567
0.662076 0.9857
0.66212 0.985838
0.662164 0.985982
0.662208 0.98613
0.662252 0.986283
0.662296 0.986439
0.662339 0.986599
0.662383 0.986762
0.662427 0.986928
0.662471 0.987097
0.662515 0.987268
0.662559 0.98744
0.662603 0.987614
0.662647 0.987788
0.662691 0.987964
0.662734 0.988139
0.662778 0.988315
0.662822 0.98849
0.662866 0.988664
0.66291 0.988843
0.662954 0.989029
0.662998 0.989207
0.663042 0.989374
0.663086 0.989536
0.66313 0.989694
0.663174 0.989849
0.663218 0.990001
0.663262 0.990151
0.663306 0.990299
0.66335 0.990445
0.663394 0.990591
0.663438 0.990736
0.663482 0.990882
0.663526 0.991028
0.66357 0.991176
0.663614 0.991326
0.663658 0.991478
0.663702 0.991633
0.663746 0.991792
0.66379 0.991954
0.663834 0.99212
0.663878 0.992289
0.663922 0.992461
0.663967 0.992637
0.664011 0.992817
0.664055 0.993003
0.664099 0.993197
0.664143 0.993397
0.664187 0.993601
0.664231 0.993808
0.664275 0.994017
0.664319 0.994226
0.664364 0.994434
0.664408 0.99464
0.664452 0.994841
0.664496 0.995036
0.66454 0.995225
0.664584 0.995405
0.664628 0.995576
0.664673 0.995735
0.664717 0.995882
0.664761 0.996021
0.664805 0.996152
0.664849 0.996278
0.664894 0.996401
0.664938 0.996522
0.664982 0.996646
0.665026 0.996771
0.66507 0.996897
0.665115 0.997023
0.665159 0.997149
0.665203 0.997274
0.665247 0.997399
0.665292 0.997523
0.665336 0.997645
0.66538 0.997767
0.665425 0.997887
0.665469 0.998005
0.665513 0.998122
0.665557 0.998237
0.665602 0.998351
0.665646 0.998465
0.66569 0.99858
0.665735 0.998695
0.665779 0.998807
0.665823 0.998916
0.665868 0.999021
0.665912 0.999121
0.665956 0.999214
0.666001 0.999299
0.666045 0.999383
0.666089 0.99947
0.666134 0.999558
0.666178 0.999645
0.666223 0.999728
0.666267 0.999805
0.666311 0.999872
0.666356 0.999927
0.6664 0.999969
0.666445 0.999994
0.666489 1.0
0.666533 0.999995
0.666578 0.999983
0.666622 0.999966
0.666667 0.999943
0.666711 0.999915
0.666756 0.999883
0.6668 0.999847
0.666844 0.999807
0.666889 0.999764
0.666933 0.999719
0.666978 0.999672
0.667022 0.99962
0.667067 0.999547
0.667111 0.999453
0.667156 0.999343
0.6672 0.999223
0.667245 0.999096
0.667289 0.998968
0.667334 0.998844
0.667379 0.998727
0.667423 0.998612
0.667468 0.998488
0.667512 0.998357
0.667557 0.998222
0.667601 0.998085
0.667646 0.997949
0.66769 0.997815
0.667735 0.997687
0.66778 0.997565
0.667824 0.997453
0.667869 0.997352
0.667913 0.997266
0.667958 0.997196
0.668003 0.997144
0.668047 0.997102
0.668092 0.997061
0.668137 0.997025
0.668181 0.996996
0.668226 0.996975
0.668271 0.996966
0.668315 0.996968
0.66836 0.996978
0.668405 0.996995
0.668449 0.997017
0.668494 0.997044
0.668539 0.997074
0.668583 0.997106
0.668628 0.99714
0.668673 0.997174
0.668717 0.997207
0.668762 0.997238
0.668807 0.997267
0.668852 0.997292
0.668896 0.997311
0.668941 0.997325
0.668986 0.997331
0.669031 0.997326
0.669075 0.997303
0.66912 0.997267
0.669165 0.997225
0.66921 0.997184
0.669254 0.997137
0.669299 0.997084
0.669344 0.997025
0.669389 0.996961
0.669434 0.996892
0.669478 0.996818
0.669523 0.99674
0.669568 0.996656
0.669613 0.996569
0.669658 0.996478
0.669703 0.996382
0.669748 0.996283
0.669792 0.996181
0.669837 0.996076
0.669882 0.995968
0.669927 0.995857
0.669972 0.995743
0.670017 0.995625
0.670062 0.995479
0.670107 0.995296
0.670151 0.995086
0.670196 0.994851
0.670241 0.994595
0.670286 0.994319
0.670331 0.994025
0.670376 0.993717
0.670421 0.993395
0.670466 0.993062
0.670511 0.99272
0.670556 0.992372
0.670601 0.99202
0.670646 0.991666
0.670691 0.991311
0.670736 0.990959
0.670781 0.990612
0.670826 0.990271
0.670871 0.98994
0.670916 0.989619
0.670961 0.989312
0.671006 0.989025
0.671051 0.988757
0.671096 0.988483
0.671141 0.988204
0.671186 0.987923
0.671231 0.987641
0.671276 0.987359
0.671321 0.987081
0.671366 0.986806
0.671411 0.986538
0.671456 0.986278
0.671501 0.986027
0.671547 0.985788
0.671592 0.985562
0.671637 0.98535
0.671682 0.985156
0.671727 0.98498
0.671772 0.984824
0.671817 0.98469
0.671862 0.984579
0.671908 0.984488
0.671953 0.984409
0.671998 0.984373
0.672043 0.984373
0.672088 0.984375
0.672133 0.984377
0.672179 0.984381
0.672224 0.984386
0.672269 0.984391
0.672314 0.984398
0.672359 0.984406
0.672405 0.984414
0.67245 0.984424
0.672495 0.984435
0.67254 0.984446
0.672585 0.984458
0.672631 0.984472
0.672676 0.984486
0.672721 0.984501
0.672766 0.984516
0.672812 0.984539
0.672857 0.984581
0.672902 0.984633
0.672948 0.984685
0.672993 0.984726
0.673038 0.984756
0.673083 0.984786
0.673129 0.984815
0.673174 0.984844
0.673219 0.984872
0.673265 0.984899
0.67331 0.984924
0.673355 0.984947
0.673401 0.984969
0.673446 0.984988
0.673491 0.985004
0.673537 0.985018
0.673582 0.985028
0.673627 0.985034
0.673673 0.985037
0.673718 0.985008
0.673764 0.984913
0.673809 0.984764
0.673854 0.984572
0.6739 0.984349
0.673945 0.984108
0.673991 0.98386
0.674036 0.983597
0.674082 0.983284
0.674127 0.982924
0.674172 0.982519
0.674218 0.982071
0.674263 0.981584
0.674309 0.98106
0.674354 0.980502
0.6744 0.979912
0.674445 0.979293
0.674491 0.978648
0.674536 0.97798
0.674582 0.977291
0.674627 0.976536
0.674673 0.975691
0.674718 0.974764
0.674764 0.973762
0.674809 0.972692
0.674855 0.971561
0.6749 0.970376
0.674946 0.969145
0.674992 0.967875
0.675037 0.96656
0.675083 0.965174
0.675128 0.963714
0.675174 0.962176
0.675219 0.960557
0.675265 0.958853
0.675311 0.957061
0.675356 0.955177
0.675402 0.953198
0.675447 0.951119
0.675493 0.948926
0.675539 0.946511
0.675584 0.943871
0.67563 0.941034
0.675676 0.938029
0.675721 0.934884
0.675767 0.931627
0.675813 0.928286
0.675858 0.92489
0.675904 0.921468
0.67595 0.918046
0.675995 0.914654
0.676041 0.911228
0.676087 0.907666
0.676133 0.904004
0.676178 0.900277
0.676224 0.896523
0.67627 0.892778
0.676315 0.889078
0.676361 0.885461
0.676407 0.881934
0.676453 0.878438
0.676498 0.874967
0.676544 0.87152
0.67659 0.868093
0.676636 0.864686
0.676682 0.861294
0.676727 0.857916
0.676773 0.854551
0.676819 0.851194
0.676865 0.847845
0.676911 0.8445
0.676956 0.841158
0.677002 0.837816
0.677048 0.83447
0.677094 0.831118
0.67714 0.827762
0.677186 0.824405
0.677231 0.821047
0.677277 0.817692
0.677323 0.814341
0.677369 0.810995
0.677415 0.807658
0.677461 0.80433
0.677507 0.801015
0.677553 0.797712
0.677599 0.794426
0.677645 0.791157
0.67769 0.787908
0.677736 0.78468
0.677782 0.781476
0.677828 0.778297
0.677874 0.775145
0.67792 0.772023
0.677966 0.768932
0.678012 0.765976
0.678058 0.763124
0.678104 0.760296
0.67815 0.75749
0.678196 0.754704
0.678242 0.751939
0.678288 0.749191
0.678334 0.746461
0.67838 0.743746
0.678426 0.741045
0.678472 0.738357
0.678518 0.735681
0.678564 0.733016
0.67861 0.730359
0.678656 0.72771
0.678702 0.725067
0.678748 0.72243
0.678794 0.719796
0.678841 0.717164
0.678887 0.714534
0.678933 0.711903
0.678979 0.709271
0.679025 0.706639
0.679071 0.70403
0.679117 0.701443
0.679163 0.698875
0.679209 0.696323
0.679256 0.693785
0.679302 0.691258
0.679348 0.688738
0.679394 0.686224
0.67944 0.683711
0.679486 0.681197
0.679532 0.678679
0.679579 0.676155
0.679625 0.673621
0.679671 0.671075
0.679717 0.668513
0.679763 0.665934
0.67981 0.663332
0.679856 0.660707
0.679902 0.658055
0.679948 0.655373
0.679995 0.652658
0.680041 0.649914
0.680087 0.64715
0.680133 0.644366
0.68018 0.64156
0.680226 0.638734
0.680272 0.635887
0.680318 0.633018
0.680365 0.630128
0.680411 0.627215
0.680457 0.62428
0.680504 0.621323
0.68055 0.618342
0.680596 0.615339
0.680643 0.612312
0.680689 0.609261
0.680735 0.606182
0.680782 0.603051
0.680828 0.59987
0.680874 0.596645
0.680921 0.593383
0.680967 0.590089
0.681013 0.58677
0.68106 0.583433
0.681106 0.580079
0.681153 0.576708
0.681199 0.57332
0.681245 0.569917
0.681292 0.566497
0.681338 0.563061
0.681385 0.55961
0.681431 0.556144
0.681477 0.552663
0.681524 0.549167
0.68157 0.545657
0.681617 0.542132
0.681663 0.538593
0.68171 0.535041
0.681756 0.531475
0.681803 0.527896
0.681849 0.524304
0.681896 0.520699
0.681942 0.517082
0.681989 0.513453
0.682035 0.509808
0.682082 0.506139
0.682128 0.502447
0.682175 0.498734
0.682221 0.495
0.682268 0.491248
0.682314 0.48748
0.682361 0.483695
0.682408 0.479897
0.682454 0.476086
0.682501 0.472264
0.682547 0.468433
0.682594 0.464593
0.68264 0.460747
0.682687 0.456896
0.682734 0.453041
0.68278 0.449183
0.682827 0.445326
0.682874 0.441469
0.68292 0.437614
0.682967 0.433763
0.683013 0.429902
0.68306 0.425882
0.683107 0.421803
0.683153 0.417671
0.6832 0.413492
0.683247 0.409272
0.683293 0.405015
0.68334 0.400727
0.683387 0.396415
0.683434 0.392084
0.68348 0.387739
0.683527 0.383387
0.683574 0.379032
0.68362 0.374681
0.683667 0.370339
0.683714 0.366012
0.683761 0.361706
0.683807 0.357426
0.683854 0.353178
0.683901 0.348967
0.683948 0.3448
0.683995 0.340682
0.684041 0.336593
0.684088 0.332498
0.684135 0.328403
0.684182 0.324313
0.684229 0.320233
0.684275 0.316169
0.684322 0.312127
0.684369 0.308112
0.684416 0.30413
0.684463 0.300185
0.68451 0.296284
0.684556 0.292432
0.684603 0.288635
0.68465 0.284897
0.684697 0.281226
0.684744 0.277627
0.684791 0.274119
0.684838 0.270695
0.684885 0.267342
0.684932 0.264049
0.684978 0.260804
0.685025 0.257591
0.685072 0.254388
0.685119 0.251193
0.685166 0.248009
0.685213 0.244837
0.68526 0.241679
0.685307 0.238537
0.685354 0.235413
0.685401 0.232309
0.685448 0.229227
0.685495 0.226168
0.685542 0.223135
0.685589 0.220129
0.685636 0.217153
0.685683 0.214208
0.68573 0.211297
0.685777 0.208421
0.685824 0.205581
0.685871 0.202781
0.685918 0.200021
0.685965 0.197305
0.686012 0.194633
0.686059 0.192004
0.686106 0.189419
0.686153 0.186878
0.686201 0.184384
0.686248 0.181939
0.686295 0.179542
0.686342 0.177197
0.686389 0.174905
0.686436 0.172666
0.686483 0.17048
0.68653 0.168339
0.686577 0.16624
0.686625 0.16418
0.686672 0.162156
0.686719 0.160165
0.686766 0.158204
0.686813 0.15627
0.68686 0.15436
0.686908 0.152471
0.686955 0.1506
0.687002 0.148743
0.687049 0.146911
0.687096 0.145109
0.687144 0.143335
0.687191 0.141587
0.687238 0.13986
0.687285 0.138153
0.687332 0.136463
0.68738 0.134786
0.687427 0.133121
0.687474 0.131463
0.687521 0.129811
0.687569 0.128161
0.687616 0.12651
0.687663 0.124856
0.687711 0.123196
0.687758 0.121527
0.687805 0.119846
0.687853 0.11815
0.6879 0.116437
0.687947 0.114703
0.687994 0.112946
0.688042 0.111166
0.688089 0.109362
0.688137 0.107529
0.688184 0.105658
0.688231 0.103743
0.688279 0.10179
0.688326 0.099804
0.688373 0.097792
0.688421 0.09576
0.688468 0.093713
0.688516 0.091659
0.688563 0.089603
0.68861 0.087551
0.688658 0.08551
0.688705 0.083485
0.688753 0.081484
0.6888 0.079511
0.688848 0.077574
0.688895 0.075679
0.688942 0.073831
0.68899 0.072037
0.689037 0.070298
0.689085 0.068614
0.689132 0.067006
0.68918 0.065493
0.689227 0.064038
0.689275 0.062604
0.689322 0.061192
0.68937 0.059803
0.689417 0.058436
0.689465 0.057092
0.689513 0.05577
0.68956 0.054472
0.689608 0.053197
0.689655 0.051946
0.689703 0.050718
0.68975 0.049514
0.689798 0.048335
0.689845 0.04718
0.689893 0.04605
0.689941 0.044944
0.689988 0.043864
0.690036 0.042821
0.690084 0.041846
0.690131 0.040939
0.690179 0.040076
0.690226 0.039228
0.690274 0.038392
0.690322 0.03757
0.690369 0.036762
0.690417 0.035966
0.690465 0.035185
0.690512 0.034416
0.69056 0.033661
0.690608 0.03292
0.690655 0.032191
0.690703 0.031477
0.690751 0.030776
0.690799 0.030088
0.690846 0.029413
0.690894 0.028753
0.690942 0.028105
0.690989 0.027471
0.691037 0.026864
0.691085 0.026309
0.691133 0.02579
0.691181 0.025279
0.691228 0.024775
0.691276 0.024278
0.691324 0.023788
0.691372 0.023305
0.691419 0.02283
0.691467 0.022361
0.691515 0.0219
0.691563 0.021446
0.691611 0.020999
0.691659 0.02056
0.691706 0.020128
0.691754 0.019702
0.691802 0.019285
0.69185 0.018874
0.691898 0.01847
0.691946 0.018074
0.691994 0.017685
0.692042 0.01732
0.692089 0.016991
0.692137 0.016667
0.692185 0.016347
0.692233 0.01603
0.692281 0.015718
0.692329 0.015409
0.692377 0.015104
0.692425 0.014804
0.692473 0.014507
0.692521 0.014214
0.692569 0.013926
0.692617 0.013642
0.692665 0.013362
0.692713 0.013087
0.692761 0.012816
0.692809 0.012549
0.692857 0.012287
0.692905 0.01203
0.692953 0.011777
0.693001 0.011529
0.693049 0.011313
0.693097 0.011103
0.693145 0.010895
0.693193 0.01069
0.693241 0.010486
0.693289 0.010285
0.693337 0.010086
0.693385 0.00989
0.693433 0.009696
0.693481 0.009505
0.693529 0.009316
0.693577 0.009131
0.693626 0.008948
0.693674 0.008769
0.693722 0.008592
0.69377 0.008419
0.693818 0.008249
0.693866 0.008083
0.693914 0.00792
0.693963 0.007761
0.694011 0.007611
0.694059 0.00748
0.694107 0.007352
0.694155 0.007225
0.694203 0.007099
0.694252 0.006976
0.6943 0.006854
0.694348 0.006733
0.694396 0.006614
0.694444 0.006497
0.694493 0.006382
0.694541 0.006267
0.694589 0.006155
0.694637 0.006044
0.694686 0.005934
0.694734 0.005826
0.694782 0.005719
0.69483 0.005614
0.694879 0.00551
0.694927 0.005407
0.694975 0.005305
0.695024 0.005212
0.695072 0.005124
0.69512 0.005036
0.695169 0.00495
0.695217 0.004863
0.695265 0.004778
0.695314 0.004694
0.695362 0.00461
0.69541 0.004527
0.695459 0.004446
0.695507 0.004365
0.695555 0.004285
0.695604 0.004207
0.695652 0.004129
0.695701 0.004053
0.695749 0.003978
0.695797 0.003904
0.695846 0.003832
0.695894 0.003761
0.695943 0.003691
0.695991 0.003624
0.69604 0.003566
0.696088 0.003508
0.696136 0.003451
0.696185 0.003394
0.696233 0.003339
0.696282 0.003284
0.69633 0.003229
0.696379 0.003176
0.696427 0.003123
0.696476 0.00307
0.696524 0.003018
0.696573 0.002967
0.696621 0.002917
0.69667 0.002867
0.696718 0.002818
0.696767 0.002769
0.696816 0.002721
0.696864 0.002673
0.696913 0.002627
0.696961 0.00258
0.69701 0.002537
0.697058 0.002497
0.697107 0.002456
0.697156 0.002416
0.697204 0.002376
0.697253 0.002337
0.697301 0.002298
0.69735 0.002259
0.697399 0.002221
0.697447 0.002183
0.697496 0.002146
0.697545 0.002109
0.697593 0.002073
0.697642 0.002037
0.697691 0.002002
# -------------------
# GOES19_ABI Band CH086
# -------------------
0.829463 0.002007
0.829531 0.002053
0.8296 0.002099
0.829669 0.002146
0.829738 0.002194
0.829807 0.002243
0.829876 0.002292
0.829944 0.002342
0.830013 0.002393
0.830082 0.002447
0.830151 0.002505
0.83022 0.002565
0.830289 0.002626
0.830358 0.002688
0.830427 0.002752
0.830496 0.002817
0.830565 0.002883
0.830634 0.002951
0.830703 0.003019
0.830772 0.003088
0.830841 0.003158
0.83091 0.003229
0.830979 0.003301
0.831048 0.003375
0.831117 0.003456
0.831186 0.003538
0.831255 0.003622
0.831324 0.003706
0.831393 0.003792
0.831463 0.003879
0.831532 0.003967
0.831601 0.004058
0.83167 0.00415
0.831739 0.004244
0.831808 0.00434
0.831878 0.004439
0.831947 0.004539
0.832016 0.004643
0.832085 0.004762
0.832154 0.00489
0.832224 0.005023
0.832293 0.005161
0.832362 0.005303
0.832432 0.005449
0.832501 0.005599
0.83257 0.005753
0.832639 0.005909
0.832709 0.006069
0.832778 0.006231
0.832848 0.006396
0.832917 0.006562
0.832986 0.006731
0.833056 0.006912
0.833125 0.007111
0.833194 0.007313
0.833264 0.00752
0.833333 0.007732
0.833403 0.007949
0.833472 0.008169
0.833542 0.008395
0.833611 0.008625
0.833681 0.008859
0.83375 0.009098
0.83382 0.009341
0.833889 0.009588
0.833959 0.00984
0.834028 0.010103
0.834098 0.010405
0.834168 0.010715
0.834237 0.011033
0.834307 0.011359
0.834376 0.011693
0.834446 0.012035
0.834516 0.012384
0.834585 0.01274
0.834655 0.013104
0.834725 0.013476
0.834794 0.013854
0.834864 0.01424
0.834934 0.014632
0.835003 0.015032
0.835073 0.015471
0.835143 0.015955
0.835213 0.016454
0.835282 0.016968
0.835352 0.017496
0.835422 0.018038
0.835492 0.018593
0.835561 0.019161
0.835631 0.019741
0.835701 0.020332
0.835771 0.020935
0.835841 0.021548
0.835911 0.022171
0.835981 0.022804
0.83605 0.023458
0.83612 0.024173
0.83619 0.02493
0.83626 0.025706
0.83633 0.0265
0.8364 0.027313
0.83647 0.028144
0.83654 0.028994
0.83661 0.029864
0.83668 0.030752
0.83675 0.03166
0.83682 0.032587
0.83689 0.033534
0.83696 0.034501
0.83703 0.035492
0.8371 0.036548
0.83717 0.03769
0.83724 0.038903
0.837311 0.040159
0.837381 0.041456
0.837451 0.042792
0.837521 0.044166
0.837591 0.045577
0.837661 0.047024
0.837731 0.048504
0.837802 0.050017
0.837872 0.05156
0.837942 0.053133
0.838012 0.054735
0.838082 0.056404
0.838153 0.058176
0.838223 0.060071
0.838293 0.062094
0.838364 0.064221
0.838434 0.06644
0.838504 0.068738
0.838574 0.071101
0.838645 0.073516
0.838715 0.07597
0.838785 0.07845
0.838856 0.080942
0.838926 0.083433
0.838997 0.085909
0.839067 0.088416
0.839137 0.090987
0.839208 0.093569
0.839278 0.096111
0.839349 0.098597
0.839419 0.101049
0.83949 0.103477
0.83956 0.105889
0.839631 0.108296
0.839701 0.110705
0.839772 0.113127
0.839842 0.11557
0.839913 0.118044
0.839983 0.120558
0.840054 0.123108
0.840124 0.125669
0.840195 0.128246
0.840266 0.130841
0.840336 0.133457
0.840407 0.1361
0.840477 0.138772
0.840548 0.141477
0.840619 0.144218
0.840689 0.147
0.84076 0.149828
0.840831 0.152725
0.840901 0.155703
0.840972 0.158759
0.841043 0.161883
0.841114 0.165046
0.841184 0.168243
0.841255 0.171474
0.841326 0.174739
0.841397 0.178037
0.841468 0.181369
0.841538 0.184733
0.841609 0.188129
0.84168 0.191557
0.841751 0.195016
0.841822 0.198505
0.841893 0.202025
0.841963 0.205575
0.842034 0.20916
0.842105 0.212811
0.842176 0.216532
0.842247 0.220321
0.842318 0.224176
0.842389 0.228091
0.84246 0.232056
0.842531 0.236066
0.842602 0.240126
0.842673 0.244235
0.842744 0.248398
0.842815 0.252614
0.842886 0.256887
0.842957 0.261218
0.843028 0.26561
0.843099 0.270067
0.84317 0.274587
0.843241 0.279165
0.843313 0.283796
0.843384 0.288475
0.843455 0.293198
0.843526 0.29796
0.843597 0.302756
0.843668 0.307582
0.843739 0.312432
0.843811 0.317302
0.843882 0.322187
0.843953 0.327083
0.844024 0.332093
0.844096 0.33731
0.844167 0.342597
0.844238 0.34795
0.844309 0.35336
0.844381 0.358822
0.844452 0.364329
0.844523 0.369875
0.844595 0.375453
0.844666 0.381057
0.844737 0.38668
0.844809 0.392316
0.84488 0.397958
0.844951 0.403599
0.845023 0.409238
0.845094 0.414918
0.845166 0.420644
0.845237 0.426405
0.845309 0.432187
0.84538 0.437978
0.845451 0.443765
0.845523 0.449535
0.845594 0.455276
0.845666 0.460989
0.845737 0.466694
0.845809 0.472388
0.845881 0.478067
0.845952 0.483727
0.846024 0.489367
0.846095 0.495006
0.846167 0.500648
0.846238 0.506289
0.84631 0.511927
0.846382 0.517556
0.846453 0.523174
0.846525 0.528778
0.846597 0.534363
0.846668 0.539927
0.84674 0.545466
0.846812 0.550976
0.846883 0.556453
0.846955 0.561895
0.847027 0.567295
0.847099 0.572628
0.84717 0.577906
0.847242 0.583149
0.847314 0.588377
0.847386 0.593603
0.847458 0.598818
0.847529 0.60402
0.847601 0.609209
0.847673 0.614387
0.847745 0.619554
0.847817 0.62471
0.847889 0.629854
0.847961 0.634989
0.848033 0.640115
0.848104 0.645245
0.848176 0.650377
0.848248 0.655508
0.84832 0.660635
0.848392 0.665755
0.848464 0.670864
0.848536 0.675959
0.848608 0.681037
0.84868 0.686095
0.848752 0.69113
0.848824 0.696137
0.848896 0.701114
0.848969 0.706057
0.849041 0.710975
0.849113 0.71586
0.849185 0.720589
0.849257 0.725094
0.849329 0.729469
0.849401 0.73374
0.849473 0.737927
0.849545 0.742052
0.849618 0.746137
0.84969 0.750202
0.849762 0.754269
0.849834 0.758359
0.849907 0.762493
0.849979 0.766692
0.850051 0.77094
0.850123 0.775144
0.850196 0.779313
0.850268 0.783465
0.85034 0.787615
0.850412 0.79178
0.850485 0.795976
0.850557 0.80022
0.850629 0.804527
0.850702 0.808915
0.850774 0.813399
0.850847 0.817997
0.850919 0.822724
0.850991 0.827597
0.851064 0.832945
0.851136 0.839107
0.851209 0.845763
0.851281 0.85281
0.851354 0.860146
0.851426 0.867669
0.851499 0.875274
0.851571 0.88286
0.851644 0.890323
0.851716 0.89756
0.851789 0.904468
0.851861 0.910942
0.851934 0.916881
0.852006 0.921929
0.852079 0.926521
0.852152 0.93103
0.852224 0.935442
0.852297 0.939745
0.85237 0.943926
0.852442 0.947973
0.852515 0.951872
0.852588 0.955612
0.85266 0.959178
0.852733 0.962558
0.852806 0.965739
0.852878 0.968658
0.852951 0.97128
0.853024 0.973642
0.853097 0.97593
0.85317 0.978179
0.853242 0.980363
0.853315 0.982456
0.853388 0.984435
0.853461 0.986272
0.853534 0.987943
0.853606 0.989421
0.853679 0.990682
0.853752 0.991758
0.853825 0.9927
0.853898 0.993533
0.853971 0.994279
0.854044 0.994969
0.854117 0.995635
0.85419 0.996272
0.854263 0.996869
0.854336 0.997416
0.854409 0.997905
0.854482 0.998324
0.854555 0.998666
0.854628 0.99898
0.854701 0.999285
0.854774 0.999559
0.854847 0.999783
0.85492 0.999937
0.854993 1.0
0.855066 0.999994
0.855139 0.999976
0.855213 0.999946
0.855286 0.999905
0.855359 0.999855
0.855432 0.999786
0.855505 0.999469
0.855578 0.998861
0.855652 0.99803
0.855725 0.997044
0.855798 0.995969
0.855871 0.994874
0.855945 0.993827
0.856018 0.992887
0.856091 0.991921
0.856164 0.990927
0.856238 0.989984
0.856311 0.989166
0.856384 0.988423
0.856458 0.987723
0.856531 0.987059
0.856604 0.986423
0.856678 0.985808
0.856751 0.985206
0.856825 0.984609
0.856898 0.98401
0.856971 0.983401
0.857045 0.982779
0.857118 0.982166
0.857192 0.981574
0.857265 0.980983
0.857339 0.98039
0.857412 0.9798
0.857486 0.979214
0.857559 0.978637
0.857633 0.978071
0.857706 0.977519
0.85778 0.976985
0.857854 0.976471
0.857927 0.975981
0.858001 0.975518
0.858074 0.975131
0.858148 0.974761
0.858222 0.974399
0.858295 0.974045
0.858369 0.973699
0.858443 0.97336
0.858516 0.973029
0.85859 0.972704
0.858664 0.972386
0.858738 0.972074
0.858811 0.971768
0.858885 0.971468
0.858959 0.971184
0.859033 0.97091
0.859107 0.970619
0.85918 0.970314
0.859254 0.970004
0.859328 0.969696
0.859402 0.969396
0.859476 0.969114
0.85955 0.968856
0.859623 0.968629
0.859697 0.968442
0.859771 0.968301
0.859845 0.968204
0.859919 0.968126
0.859993 0.96804
0.860067 0.96794
0.860141 0.967843
0.860215 0.967745
0.860289 0.967641
0.860363 0.967523
0.860437 0.967388
0.860511 0.96723
0.860585 0.967043
0.860659 0.966805
0.860733 0.966387
0.860807 0.965819
0.860882 0.965167
0.860956 0.964499
0.86103 0.963868
0.861104 0.96318
0.861178 0.962439
0.861252 0.961684
0.861326 0.960955
0.861401 0.960291
0.861475 0.959732
0.861549 0.959288
0.861623 0.958896
0.861698 0.958543
0.861772 0.958218
0.861846 0.957915
0.86192 0.957623
0.861995 0.957334
0.862069 0.95705
0.862143 0.95678
0.862218 0.956522
0.862292 0.956274
0.862366 0.956032
0.862441 0.955797
0.862515 0.955569
0.862589 0.955347
0.862664 0.95513
0.862738 0.954916
0.862813 0.954703
0.862887 0.954492
0.862962 0.954279
0.863036 0.954067
0.863111 0.953865
0.863185 0.953655
0.86326 0.953418
0.863334 0.953151
0.863409 0.952861
0.863483 0.952554
0.863558 0.952233
0.863632 0.951904
0.863707 0.951572
0.863782 0.951242
0.863856 0.95092
0.863931 0.95061
0.864006 0.950316
0.86408 0.950025
0.864155 0.949869
0.86423 0.949754
0.864304 0.949663
0.864379 0.94959
0.864454 0.94953
0.864528 0.949475
0.864603 0.949419
0.864678 0.949357
0.864753 0.949281
0.864827 0.949186
0.864902 0.949064
0.864977 0.948889
0.865052 0.948565
0.865127 0.948215
0.865202 0.94784
0.865276 0.94745
0.865351 0.947051
0.865426 0.946653
0.865501 0.946264
0.865576 0.945892
0.865651 0.945546
0.865726 0.945234
0.865801 0.944964
0.865876 0.944724
0.865951 0.94452
0.866026 0.944407
0.866101 0.944336
0.866176 0.944281
0.866251 0.944237
0.866326 0.9442
0.866401 0.944167
0.866476 0.944132
0.866551 0.944091
0.866626 0.94404
0.866701 0.943977
0.866776 0.943906
0.866852 0.943824
0.866927 0.943729
0.867002 0.943616
0.867077 0.943481
0.867152 0.94332
0.867227 0.943129
0.867303 0.942908
0.867378 0.942655
0.867453 0.942367
0.867528 0.942039
0.867604 0.941566
0.867679 0.940937
0.867754 0.940203
0.86783 0.939415
0.867905 0.938624
0.86798 0.937881
0.868056 0.93718
0.868131 0.936432
0.868206 0.935695
0.868282 0.935034
0.868357 0.934514
0.868432 0.934121
0.868508 0.933766
0.868583 0.933445
0.868659 0.933154
0.868734 0.932891
0.86881 0.932652
0.868885 0.932435
0.868961 0.932236
0.869036 0.932054
0.869112 0.931894
0.869187 0.931762
0.869263 0.931655
0.869338 0.93155
0.869414 0.931448
0.86949 0.931349
0.869565 0.931257
0.869641 0.931174
0.869716 0.931101
0.869792 0.93104
0.869868 0.930995
0.869943 0.930967
0.870019 0.930957
0.870095 0.930959
0.870171 0.930999
0.870246 0.931076
0.870322 0.931182
0.870398 0.931308
0.870474 0.931444
0.870549 0.931583
0.870625 0.931716
0.870701 0.931832
0.870777 0.931924
0.870853 0.931983
0.870928 0.931998
0.871004 0.931934
0.87108 0.931833
0.871156 0.931693
0.871232 0.931518
0.871308 0.931316
0.871384 0.931092
0.87146 0.930851
0.871536 0.9306
0.871612 0.930344
0.871688 0.93009
0.871764 0.929843
0.87184 0.929585
0.871916 0.929306
0.871992 0.929032
0.872068 0.928754
0.872144 0.928441
0.87222 0.928114
0.872296 0.927795
0.872372 0.927503
0.872448 0.927262
0.872524 0.927092
0.8726 0.927013
0.872676 0.927071
0.872753 0.927286
0.872829 0.927596
0.872905 0.927933
0.872981 0.928232
0.873057 0.928478
0.873134 0.92875
0.87321 0.929024
0.873286 0.929268
0.873362 0.929455
0.873439 0.929553
0.873515 0.929489
0.873591 0.92912
0.873668 0.9285
0.873744 0.9277
0.87382 0.926791
0.873897 0.925841
0.873973 0.924924
0.874049 0.924062
0.874126 0.923134
0.874202 0.922132
0.874279 0.921059
0.874355 0.919921
0.874432 0.918729
0.874508 0.917482
0.874585 0.916179
0.874661 0.914815
0.874738 0.913388
0.874814 0.911896
0.874891 0.910335
0.874967 0.908704
0.875044 0.906985
0.87512 0.905037
0.875197 0.902688
0.875274 0.899991
0.87535 0.897
0.875427 0.893749
0.875503 0.890267
0.87558 0.886586
0.875657 0.882737
0.875733 0.878752
0.87581 0.874661
0.875887 0.870497
0.875964 0.86629
0.87604 0.861659
0.876117 0.856152
0.876194 0.85023
0.876271 0.843968
0.876347 0.837441
0.876424 0.830722
0.876501 0.823887
0.876578 0.81701
0.876655 0.810166
0.876732 0.80343
0.876808 0.796877
0.876885 0.790571
0.876962 0.784423
0.877039 0.778404
0.877116 0.772412
0.877193 0.766434
0.87727 0.760476
0.877347 0.754544
0.877424 0.748645
0.877501 0.742785
0.877578 0.73697
0.877655 0.731207
0.877732 0.725503
0.877809 0.719862
0.877886 0.714293
0.877963 0.708801
0.87804 0.703538
0.878117 0.698523
0.878194 0.693569
0.878272 0.688669
0.878349 0.683819
0.878426 0.679012
0.878503 0.674242
0.87858 0.669503
0.878657 0.66479
0.878735 0.660097
0.878812 0.655417
0.878889 0.650744
0.878966 0.646073
0.879044 0.641408
0.879121 0.63679
0.879198 0.632215
0.879275 0.627673
0.879353 0.623156
0.87943 0.618655
0.879507 0.614159
0.879585 0.609659
0.879662 0.605146
0.87974 0.600611
0.879817 0.596044
0.879894 0.591435
0.879972 0.586776
0.880049 0.582027
0.880127 0.577264
0.880204 0.572513
0.880282 0.56777
0.880359 0.56303
0.880437 0.558288
0.880514 0.553542
0.880592 0.548785
0.880669 0.544014
0.880747 0.539223
0.880824 0.534409
0.880902 0.529568
0.88098 0.524694
0.881057 0.51979
0.881135 0.514874
0.881213 0.509944
0.88129 0.504997
0.881368 0.500031
0.881446 0.495045
0.881523 0.490035
0.881601 0.485
0.881679 0.479937
0.881756 0.474843
0.881834 0.469718
0.881912 0.464557
0.88199 0.45936
0.882068 0.45388
0.882145 0.448284
0.882223 0.442608
0.882301 0.436864
0.882379 0.431063
0.882457 0.425217
0.882535 0.419338
0.882613 0.413437
0.88269 0.407525
0.882768 0.401616
0.882846 0.395719
0.882924 0.389848
0.883002 0.384014
0.88308 0.378183
0.883158 0.372329
0.883236 0.366468
0.883314 0.360617
0.883392 0.354791
0.88347 0.349007
0.883548 0.343281
0.883626 0.337596
0.883704 0.331942
0.883783 0.326326
0.883861 0.320755
0.883939 0.315234
0.884017 0.30977
0.884095 0.304331
0.884173 0.298903
0.884251 0.293492
0.88433 0.288104
0.884408 0.282743
0.884486 0.277416
0.884564 0.272127
0.884643 0.266881
0.884721 0.261685
0.884799 0.256543
0.884877 0.251461
0.884956 0.246443
0.885034 0.24161
0.885112 0.236882
0.885191 0.232152
0.885269 0.227429
0.885347 0.222722
0.885426 0.218043
0.885504 0.2134
0.885583 0.208803
0.885661 0.204262
0.88574 0.199786
0.885818 0.195387
0.885897 0.191073
0.885975 0.186855
0.886054 0.182737
0.886132 0.178714
0.886211 0.174789
0.886289 0.170967
0.886368 0.167253
0.886446 0.163652
0.886525 0.160149
0.886603 0.156727
0.886682 0.153384
0.886761 0.150117
0.886839 0.146923
0.886918 0.1438
0.886997 0.140745
0.887075 0.137754
0.887154 0.134821
0.887233 0.131941
0.887311 0.129109
0.88739 0.126321
0.887469 0.123571
0.887548 0.120854
0.887626 0.118166
0.887705 0.115501
0.887784 0.112855
0.887863 0.110222
0.887942 0.107616
0.888021 0.105127
0.888099 0.102703
0.888178 0.100309
0.888257 0.097942
0.888336 0.095602
0.888415 0.093285
0.888494 0.09099
0.888573 0.088715
0.888652 0.086458
0.888731 0.084217
0.88881 0.081991
0.888889 0.079776
0.888968 0.077572
0.889047 0.075387
0.889126 0.073254
0.889205 0.071141
0.889284 0.069006
0.889363 0.06685
0.889442 0.064687
0.889521 0.062528
0.889601 0.060388
0.88968 0.05828
0.889759 0.056216
0.889838 0.054209
0.889917 0.052273
0.889996 0.050421
0.890076 0.048666
0.890155 0.047039
0.890234 0.045557
0.890313 0.044138
0.890393 0.042768
0.890472 0.041443
0.890551 0.040158
0.890631 0.038909
0.89071 0.037693
0.890789 0.036504
0.890869 0.035339
0.890948 0.034193
0.891027 0.033067
0.891107 0.032001
0.891186 0.030982
0.891266 0.029971
0.891345 0.028954
0.891424 0.027939
0.891504 0.026933
0.891583 0.025943
0.891663 0.024979
0.891742 0.024046
0.891822 0.023154
0.891902 0.022309
0.891981 0.02152
0.892061 0.020793
0.89214 0.020141
0.89222 0.019579
0.892299 0.019061
0.892379 0.01857
0.892459 0.018104
0.892538 0.017659
0.892618 0.017234
0.892698 0.016825
0.892777 0.01643
0.892857 0.016046
0.892937 0.015672
0.893017 0.015304
0.893096 0.014959
0.893176 0.014637
0.893256 0.014329
0.893336 0.014027
0.893416 0.013731
0.893495 0.013441
0.893575 0.013156
0.893655 0.012878
0.893735 0.012606
0.893815 0.012339
0.893895 0.012079
0.893975 0.011825
0.894055 0.011578
0.894134 0.011344
0.894214 0.011124
0.894294 0.010911
0.894374 0.010704
0.894454 0.010501
0.894534 0.010303
0.894614 0.010108
0.894694 0.009915
0.894775 0.009725
0.894855 0.009536
0.894935 0.009348
0.895015 0.00916
0.895095 0.008977
0.895175 0.008795
0.895255 0.008603
0.895335 0.008398
0.895415 0.008183
0.895496 0.007963
0.895576 0.007744
0.895656 0.00753
0.895736 0.007326
0.895817 0.007137
0.895897 0.006969
0.895977 0.006825
0.896057 0.006706
0.896138 0.006606
0.896218 0.006543
0.896298 0.006498
0.896379 0.00646
0.896459 0.006429
0.896539 0.006402
0.89662 0.006378
0.8967 0.006355
0.896781 0.00633
0.896861 0.006304
0.896941 0.006273
0.897022 0.006236
0.897102 0.006197
0.897183 0.006145
0.897263 0.006051
0.897344 0.005905
0.897424 0.005715
0.897505 0.005492
0.897585 0.005244
0.897666 0.004982
0.897747 0.004716
0.897827 0.004455
0.897908 0.00421
0.897989 0.00399
0.898069 0.003789
0.89815 0.0036
0.89823 0.003439
0.898311 0.003282
0.898392 0.003128
0.898473 0.002978
0.898553 0.002836
0.898634 0.002702
0.898715 0.00258
0.898796 0.00247
0.898876 0.002376
0.898957 0.002299
0.899038 0.002239
0.899119 0.002194
0.8992 0.002169
0.899281 0.002153
0.899361 0.00214
0.899442 0.00213
0.899523 0.002121
0.899604 0.002114
0.899685 0.002107
0.899766 0.0021
0.899847 0.002092
0.899928 0.002083
0.900009 0.002071
0.90009 0.002059
0.900171 0.002043
0.900252 0.002011
0.901632 0.002095
0.901713 0.002271
0.901795 0.002435
0.901876 0.002576
0.901957 0.002682
0.902039 0.00275
0.90212 0.002798
0.902201 0.002795
0.902283 0.002751
0.902364 0.002675
0.902446 0.002573
0.902527 0.002452
0.902609 0.002317
0.90269 0.002174
0.902772 0.002031
# -------------------
# GOES19_ABI Band CH138
# -------------------
1.362398 0.002093
1.362583 0.002426
1.362769 0.002847
1.362955 0.003377
1.363141 0.004016
1.363327 0.004791
1.363512 0.005694
1.363698 0.006822
1.363884 0.008221
1.36407 0.009927
1.364256 0.011956
1.364443 0.014279
1.364629 0.016965
1.364815 0.020182
1.365001 0.023839
1.365188 0.02798
1.365374 0.032582
1.365561 0.037634
1.365747 0.043221
1.365934 0.049413
1.36612 0.056077
1.366307 0.063131
1.366494 0.070017
1.36668 0.076377
1.366867 0.082175
1.367054 0.087978
1.367241 0.093943
1.367428 0.100017
1.367615 0.106581
1.367802 0.113824
1.367989 0.121776
1.368176 0.130348
1.368363 0.139725
1.368551 0.150003
1.368738 0.162064
1.368925 0.1759
1.369113 0.191664
1.3693 0.208934
1.369488 0.227769
1.369675 0.248457
1.369863 0.271032
1.370051 0.295464
1.370238 0.322098
1.370426 0.350528
1.370614 0.381356
1.370802 0.416008
1.37099 0.45315
1.371178 0.491277
1.371366 0.530669
1.371554 0.56915
1.371742 0.605857
1.37193 0.640388
1.372119 0.672712
1.372307 0.702524
1.372495 0.729521
1.372684 0.750532
1.372872 0.767481
1.373061 0.781976
1.373249 0.795163
1.373438 0.806907
1.373626 0.817148
1.373815 0.825814
1.374004 0.833638
1.374193 0.840813
1.374382 0.847674
1.37457 0.854662
1.374759 0.862076
1.374948 0.869725
1.375138 0.877447
1.375327 0.885363
1.375516 0.893744
1.375705 0.903493
1.375894 0.914089
1.376084 0.924588
1.376273 0.934461
1.376462 0.94382
1.376652 0.951065
1.376842 0.956198
1.377031 0.960547
1.377221 0.964316
1.37741 0.967793
1.3776 0.971138
1.37779 0.974953
1.37798 0.978579
1.37817 0.981616
1.37836 0.983917
1.37855 0.984815
1.37874 0.983829
1.37893 0.980927
1.37912 0.977974
1.37931 0.974459
1.379501 0.972275
1.379691 0.97254
1.379881 0.974472
1.380072 0.977278
1.380262 0.980584
1.380453 0.984045
1.380643 0.986278
1.380834 0.987482
1.381025 0.987503
1.381215 0.98684
1.381406 0.985761
1.381597 0.984726
1.381788 0.985541
1.381979 0.988418
1.38217 0.991602
1.382361 0.996086
1.382552 0.9992
1.382743 0.999957
1.382935 0.999669
1.383126 0.998909
1.383317 0.99723
1.383509 0.994211
1.3837 0.990094
1.383892 0.984004
1.384083 0.976245
1.384275 0.96667
1.384466 0.955657
1.384658 0.942378
1.38485 0.926172
1.385042 0.906867
1.385233 0.883093
1.385425 0.85605
1.385617 0.824998
1.385809 0.788856
1.386001 0.748424
1.386194 0.704574
1.386386 0.657873
1.386578 0.611273
1.38677 0.564409
1.386963 0.518075
1.387155 0.472868
1.387347 0.428694
1.38754 0.386201
1.387732 0.348597
1.387925 0.314532
1.388118 0.282635
1.38831 0.253325
1.388503 0.226698
1.388696 0.203828
1.388889 0.184905
1.389082 0.167891
1.389275 0.152844
1.389468 0.138699
1.389661 0.125397
1.389854 0.112883
1.390047 0.101361
1.390241 0.090753
1.390434 0.080734
1.390627 0.071502
1.390821 0.063122
1.391014 0.055475
1.391208 0.048575
1.391401 0.042365
1.391595 0.036777
1.391788 0.032062
1.391982 0.027927
1.392176 0.024291
1.39237 0.020968
1.392564 0.018023
1.392758 0.015473
1.392952 0.013289
1.393146 0.011374
1.39334 0.009704
1.393534 0.008216
1.393728 0.007019
1.393922 0.006035
1.394117 0.005218
1.394311 0.004495
1.394506 0.003879
1.3947 0.003375
1.394895 0.002979
1.395089 0.002634
1.395284 0.002335
1.395479 0.002061
# -------------------
# GOES19_ABI Band CH161
# -------------------
1.561524 0.002058
1.561768 0.002261
1.562012 0.002448
1.562256 0.002634
1.5625 0.002825
1.562744 0.003039
1.562988 0.003262
1.563233 0.003485
1.563477 0.003681
1.563722 0.003812
1.563966 0.003914
1.564211 0.004016
1.564456 0.004134
1.5647 0.004353
1.564945 0.004738
1.56519 0.005205
1.565435 0.005765
1.56568 0.006365
1.565925 0.007013
1.566171 0.007709
1.566416 0.008444
1.566661 0.009147
1.566907 0.009828
1.567152 0.01054
1.567398 0.011289
1.567644 0.012112
1.56789 0.01303
1.568135 0.014019
1.568381 0.015074
1.568627 0.016171
1.568874 0.017318
1.56912 0.018552
1.569366 0.019883
1.569612 0.02131
1.569859 0.022906
1.570105 0.024689
1.570352 0.026635
1.570598 0.028719
1.570845 0.030971
1.571092 0.033473
1.571339 0.03619
1.571586 0.039108
1.571833 0.042288
1.57208 0.04593
1.572327 0.049969
1.572574 0.054349
1.572822 0.059035
1.573069 0.064421
1.573317 0.070353
1.573564 0.076553
1.573812 0.082689
1.574059 0.088624
1.574307 0.094619
1.574555 0.100646
1.574803 0.106641
1.575051 0.112575
1.575299 0.118377
1.575548 0.123921
1.575796 0.129328
1.576044 0.134639
1.576293 0.139764
1.576541 0.144807
1.57679 0.149925
1.577038 0.155156
1.577287 0.160644
1.577536 0.166279
1.577785 0.17215
1.578034 0.178448
1.578283 0.185028
1.578532 0.191791
1.578781 0.198704
1.57903 0.205839
1.57928 0.213251
1.579529 0.220899
1.579779 0.228774
1.580028 0.236866
1.580278 0.245275
1.580528 0.254154
1.580778 0.263339
1.581028 0.272698
1.581278 0.282413
1.581528 0.292299
1.581778 0.302318
1.582028 0.312303
1.582278 0.322312
1.582529 0.332408
1.582779 0.342562
1.58303 0.352866
1.583281 0.363501
1.583531 0.374327
1.583782 0.385266
1.584033 0.396263
1.584284 0.407239
1.584535 0.418143
1.584786 0.428976
1.585037 0.439672
1.585289 0.450283
1.58554 0.46095
1.585791 0.471688
1.586043 0.482599
1.586294 0.493736
1.586546 0.505104
1.586798 0.516525
1.58705 0.527898
1.587302 0.539135
1.587554 0.550312
1.587806 0.561488
1.588058 0.57272
1.58831 0.584121
1.588562 0.595645
1.588815 0.607113
1.589067 0.618469
1.58932 0.62966
1.589572 0.640754
1.589825 0.651559
1.590078 0.662038
1.590331 0.672102
1.590584 0.681538
1.590837 0.690647
1.59109 0.699563
1.591343 0.708089
1.591596 0.71661
1.59185 0.725452
1.592103 0.734745
1.592357 0.744528
1.59261 0.754654
1.592864 0.76522
1.593118 0.776926
1.593372 0.789998
1.593625 0.803728
1.59388 0.818408
1.594134 0.834009
1.594388 0.851264
1.594642 0.871443
1.594896 0.894453
1.595151 0.915906
1.595405 0.933711
1.59566 0.948173
1.595914 0.960956
1.596169 0.970721
1.596424 0.978721
1.596679 0.985301
1.596934 0.990083
1.597189 0.99329
1.597444 0.995818
1.597699 0.997694
1.597955 0.999083
1.59821 0.999866
1.598465 0.999853
1.598721 0.999573
1.598977 0.999285
1.599232 0.998933
1.599488 0.99853
1.599744 0.997998
1.6 0.99725
1.600256 0.996364
1.600512 0.99565
1.600768 0.995354
1.601025 0.995364
1.601281 0.995681
1.601537 0.99586
1.601794 0.995896
1.602051 0.995772
1.602307 0.995396
1.602564 0.994781
1.602821 0.994028
1.603078 0.993468
1.603335 0.992993
1.603592 0.992527
1.603849 0.991851
1.604107 0.991204
1.604364 0.990755
1.604621 0.990738
1.604879 0.990858
1.605136 0.990866
1.605394 0.990736
1.605652 0.990346
1.60591 0.989799
1.606168 0.988998
1.606426 0.987893
1.606684 0.986718
1.606942 0.985747
1.6072 0.984995
1.607459 0.984344
1.607717 0.983623
1.607976 0.982783
1.608234 0.981727
1.608493 0.980296
1.608752 0.978574
1.60901 0.976859
1.609269 0.975268
1.609528 0.973761
1.609788 0.972248
1.610047 0.970578
1.610306 0.968785
1.610565 0.966791
1.610825 0.964664
1.611084 0.962754
1.611344 0.961332
1.611604 0.960073
1.611863 0.958767
1.612123 0.957331
1.612383 0.955903
1.612643 0.95453
1.612903 0.953269
1.613163 0.952433
1.613424 0.951769
1.613684 0.951339
1.613944 0.951294
1.614205 0.951719
1.614466 0.952577
1.614726 0.953462
1.614987 0.954387
1.615248 0.955488
1.615509 0.956975
1.61577 0.958701
1.616031 0.960579
1.616292 0.96257
1.616554 0.964202
1.616815 0.965334
1.617076 0.966099
1.617338 0.966252
1.617599 0.96559
1.617861 0.964383
1.618123 0.962029
1.618385 0.957983
1.618647 0.952877
1.618909 0.946336
1.619171 0.938413
1.619433 0.929105
1.619695 0.918508
1.619958 0.907137
1.62022 0.893841
1.620483 0.879179
1.620746 0.862626
1.621008 0.84403
1.621271 0.82637
1.621534 0.812081
1.621797 0.799684
1.62206 0.788237
1.622323 0.777611
1.622586 0.767606
1.62285 0.758269
1.623113 0.749697
1.623377 0.741851
1.62364 0.734219
1.623904 0.726777
1.624168 0.719372
1.624431 0.711997
1.624695 0.704582
1.624959 0.697083
1.625223 0.689298
1.625488 0.681307
1.625752 0.673185
1.626016 0.665082
1.626281 0.657118
1.626545 0.649182
1.62681 0.641162
1.627075 0.63314
1.627339 0.625137
1.627604 0.617146
1.627869 0.609215
1.628134 0.601257
1.628399 0.593306
1.628664 0.585244
1.62893 0.576998
1.629195 0.568668
1.629461 0.560303
1.629726 0.551849
1.629992 0.543277
1.630258 0.53443
1.630523 0.525341
1.630789 0.515813
1.631055 0.505915
1.631321 0.495527
1.631588 0.484802
1.631854 0.473925
1.63212 0.462938
1.632387 0.451854
1.632653 0.440662
1.63292 0.4293
1.633186 0.417521
1.633453 0.40527
1.63372 0.39291
1.633987 0.380661
1.634254 0.368657
1.634521 0.356869
1.634788 0.345494
1.635056 0.334423
1.635323 0.323521
1.63559 0.312724
1.635858 0.301982
1.636126 0.291317
1.636393 0.280759
1.636661 0.270241
1.636929 0.259854
1.637197 0.249678
1.637465 0.239719
1.637733 0.22993
1.638002 0.220378
1.63827 0.211289
1.638538 0.20248
1.638807 0.193847
1.639076 0.185522
1.639344 0.177448
1.639613 0.169631
1.639882 0.162031
1.640151 0.154832
1.64042 0.148478
1.640689 0.142469
1.640958 0.136629
1.641228 0.130839
1.641497 0.125012
1.641767 0.119053
1.642036 0.112663
1.642306 0.104865
1.642576 0.096636
1.642845 0.088208
1.643115 0.080054
1.643385 0.072316
1.643655 0.064868
1.643926 0.057845
1.644196 0.051963
1.644466 0.046878
1.644737 0.042193
1.645007 0.037935
1.645278 0.034473
1.645549 0.031236
1.64582 0.028126
1.646091 0.025203
1.646362 0.022406
1.646633 0.019718
1.646904 0.017502
1.647175 0.015994
1.647446 0.014723
1.647718 0.013509
1.647989 0.012276
1.648261 0.011081
1.648533 0.009969
1.648805 0.008973
1.649077 0.008214
1.649349 0.007556
1.649621 0.006936
1.649893 0.006297
1.650165 0.005655
1.650437 0.00508
1.65071 0.004636
1.650982 0.004439
1.651255 0.004317
1.651528 0.004199
1.6518 0.004059
1.652073 0.003843
1.652346 0.003597
1.652619 0.003368
1.652893 0.003189
1.653166 0.003051
1.653439 0.002922
1.653713 0.002779
1.653986 0.002591
1.65426 0.002384
1.654533 0.002169
1.656726 0.00214
# -------------------
# GOES19_ABI Band CH225
# -------------------
2.196837 0.00219
2.197319 0.002262
2.197802 0.00204
2.198285 0.002071
2.198769 0.002786
2.199252 0.003142
2.199736 0.003181
2.20022 0.003289
2.200704 0.003817
2.201189 0.00432
2.201673 0.00457
2.202158 0.004909
2.202643 0.006068
2.203128 0.007296
2.203614 0.008002
2.2041 0.008621
2.204586 0.00918
2.205072 0.009819
2.205558 0.010834
2.206045 0.01222
2.206531 0.014131
2.207018 0.016379
2.207506 0.0189
2.207993 0.021678
2.208481 0.024611
2.208968 0.027861
2.209456 0.031956
2.209945 0.03689
2.210433 0.042462
2.210922 0.048705
2.211411 0.056225
2.2119 0.065094
2.212389 0.075212
2.212879 0.087032
2.213369 0.100669
2.213859 0.116427
2.214349 0.134663
2.214839 0.155845
2.21533 0.180321
2.215821 0.20851
2.216312 0.240158
2.216803 0.276231
2.217295 0.3149
2.217787 0.356248
2.218279 0.40092
2.218771 0.449075
2.219263 0.499714
2.219756 0.55254
2.220249 0.604673
2.220742 0.654793
2.221235 0.703814
2.221729 0.751812
2.222222 0.794513
2.222716 0.833004
2.22321 0.865726
2.223705 0.891749
2.224199 0.912663
2.224694 0.929032
2.225189 0.94106
2.225684 0.948948
2.22618 0.953804
2.226676 0.956766
2.227171 0.958198
2.227668 0.95832
2.228164 0.958024
2.228661 0.956602
2.229157 0.95521
2.229654 0.954307
2.230152 0.953293
2.230649 0.952765
2.231147 0.953248
2.231645 0.954023
2.232143 0.954888
2.232641 0.955813
2.23314 0.957165
2.233639 0.958769
2.234138 0.961702
2.234637 0.96538
2.235136 0.968383
2.235636 0.971041
2.236136 0.973923
2.236636 0.977228
2.237136 0.980928
2.237637 0.985402
2.238138 0.988882
2.238639 0.991996
2.23914 0.995059
2.239642 0.997006
2.240143 0.998443
2.240645 0.999569
2.241147 0.999932
2.24165 0.999531
2.242152 0.99967
2.242655 0.999993
2.243158 0.99947
2.243662 0.998817
2.244165 0.998277
2.244669 0.99704
2.245173 0.995369
2.245677 0.993116
2.246181 0.99157
2.246686 0.99078
2.247191 0.990716
2.247696 0.990082
2.248201 0.988769
2.248707 0.986987
2.249213 0.98508
2.249719 0.983098
2.250225 0.980441
2.250731 0.976564
2.251238 0.972659
2.251745 0.96914
2.252252 0.966214
2.25276 0.964203
2.253267 0.961978
2.253775 0.95911
2.254283 0.957783
2.254791 0.956921
2.2553 0.955118
2.255809 0.953878
2.256318 0.953442
2.256827 0.9522
2.257336 0.950489
2.257846 0.947926
2.258356 0.943639
2.258866 0.937398
2.259376 0.928187
2.259887 0.914825
2.260398 0.897224
2.260909 0.87458
2.26142 0.848596
2.261932 0.818711
2.262443 0.783858
2.262955 0.744719
2.263468 0.70014
2.26398 0.651442
2.264493 0.601666
2.265006 0.550375
2.265519 0.497124
2.266032 0.443399
2.266546 0.392505
2.26706 0.343845
2.267574 0.301159
2.268088 0.261959
2.268603 0.225951
2.269117 0.19357
2.269632 0.165293
2.270148 0.140373
2.270663 0.119374
2.271179 0.101298
2.271695 0.086293
2.272211 0.073322
2.272727 0.062233
2.273244 0.053037
2.273761 0.04543
2.274278 0.038891
2.274795 0.033213
2.275313 0.028525
2.275831 0.024693
2.276349 0.021527
2.276867 0.018836
2.277386 0.016356
2.277904 0.014069
2.278423 0.012351
2.278943 0.011005
2.279462 0.0098
2.279982 0.008706
2.280502 0.007432
2.281022 0.006235
2.281542 0.005832
2.282063 0.005501
2.282584 0.004654
2.283105 0.003807
2.283626 0.003447
2.284148 0.003104
2.28467 0.002419
2.285192 0.002071
2.285714 0.002209
2.286237 0.002266
2.28676 0.002039
# -------------------
